# XDI/1.0  Demeter/0.9.18
# Athena.element:              Au
# Athena.edge:                 l3
# Athena.e0:                   11930
# Athena.eshift:               -4.892
# Athena.rbkg:                 1
# Athena.standard:             None
# Athena.bkg_kweight:          2
# Athena.edge_step:            3.9685506
# Athena.fixed_step:           no
# Athena.flatten:              yes
# Athena.pre_edge_range:       -250 -35
# Athena.pre_edge_line:        -7.994190 + 0.000684419 * E
# Athena.normalization_range:  20 750
# Athena.post_edge_polynomial: -109.587877 + 0.018383 * E - 7.41835e-007 * E^2 + 0 * E^3
# Athena.spline_range_energy:  0.000 739.839
# Athena.clamps:               0/24
# Athena.spline_range_k:       0.000 13.935
# Athena.kweight:              2
# Athena.window:               hanning
# Athena.phase_correction:     0
# Athena.k_range:              3.000 11.935
# Athena.dk:                   1
# Athena.r_range:              1 3
# Athena.dr:                   0.0
# Athena.window:               hanning
# Athena.plot_multiplier:      1
# Athena.y_offset:             0
# ///
#------------------------
#   e         norm        nbkg        flat        fbkg        nder        nsec
  11714.124       0.97610549E-02   0.97610549E-02   0.97610549E-02   0.97610549E-02  -0.26692646E-03   0.23643577E-04
  11719.096       0.84338699E-02   0.84338699E-02   0.84338699E-02   0.84338699E-02  -0.14936823E-03   0.16313710E-04
  11724.108       0.82697177E-02   0.82697177E-02   0.82697177E-02   0.82697177E-02  -0.10404548E-03  -0.13982324E-05
  11729.106       0.73923017E-02   0.73923017E-02   0.73923017E-02   0.73923017E-02  -0.16336551E-03  -0.49064378E-05
  11734.109       0.66358338E-02   0.66358338E-02   0.66358338E-02   0.66358338E-02  -0.15311673E-03  -0.54249071E-05
  11739.111       0.58604913E-02   0.58604913E-02   0.58604913E-02   0.58604913E-02  -0.21763737E-03   0.88340850E-06
  11744.110       0.44592860E-02   0.44592860E-02   0.44592860E-02   0.44592860E-02  -0.14428194E-03   0.18787113E-04
  11749.108       0.44180471E-02   0.44180471E-02   0.44180471E-02   0.44180471E-02  -0.29815085E-04  -0.36030877E-05
  11754.050       0.41629241E-02   0.41629241E-02   0.41629241E-02   0.41629241E-02  -0.18009663E-03  -0.12928851E-04
  11758.876       0.26588812E-02   0.26588812E-02   0.26588812E-02   0.26588812E-02  -0.15610281E-03   0.68690548E-05
  11763.585       0.26744526E-02   0.26744526E-02   0.26744526E-02   0.26744526E-02  -0.11459882E-03  -0.26565035E-05
  11768.178       0.15928829E-02   0.15928829E-02   0.15928829E-02   0.15928829E-02  -0.18081360E-03  -0.60052112E-05
  11772.666       0.10326108E-02   0.10326108E-02   0.10326108E-02   0.10326108E-02  -0.16912794E-03   0.61081324E-05
  11777.024       0.96794099E-04   0.96794097E-04   0.96794099E-04   0.96794097E-04  -0.12678168E-03   0.24836738E-06
  11781.277      -0.59106194E-04  -0.59106197E-04  -0.59106194E-04  -0.59106197E-04  -0.16698925E-03   0.23664833E-05
  11785.406      -0.13028597E-02  -0.13028597E-02  -0.13028597E-02  -0.13028597E-02  -0.10694652E-03   0.11661920E-04
  11789.434      -0.93155454E-03  -0.93155454E-03  -0.93155454E-03  -0.93155454E-03  -0.71853640E-04  -0.16316816E-04
  11793.345      -0.18733488E-02  -0.18733488E-02  -0.18733488E-02  -0.18733488E-02  -0.23649551E-03  -0.12221036E-04
  11797.143      -0.27546511E-02  -0.27546511E-02  -0.27546511E-02  -0.27546511E-02  -0.16606316E-03   0.24677986E-04
  11800.829      -0.31160825E-02  -0.31160825E-02  -0.31160825E-02  -0.31160825E-02  -0.51817803E-04   0.20247798E-04
  11804.395      -0.31304235E-02  -0.31304235E-02  -0.31304235E-02  -0.31304235E-02  -0.19230182E-04  -0.72783141E-05
  11807.860      -0.32513034E-02  -0.32513034E-02  -0.32513034E-02  -0.32513034E-02  -0.10299672E-03  -0.14296817E-04
  11811.200      -0.38313368E-02  -0.38313368E-02  -0.38313368E-02  -0.38313368E-02  -0.11652288E-03   0.24115254E-04
  11814.433      -0.40171267E-02  -0.40171267E-02  -0.40171267E-02  -0.40171267E-02   0.55495961E-04  -0.18672723E-05
  11817.557      -0.34785434E-02  -0.34785434E-02  -0.34785434E-02  -0.34785434E-02  -0.12839332E-03  -0.37056503E-04
  11820.568      -0.48048839E-02  -0.48048839E-02  -0.48048839E-02  -0.48048839E-02  -0.17186421E-03   0.33016605E-04
  11823.471      -0.44948796E-02  -0.44948796E-02  -0.44948796E-02  -0.44948796E-02   0.66853678E-04   0.22788090E-04
  11826.266      -0.44239918E-02  -0.44239918E-02  -0.44239918E-02  -0.44239918E-02  -0.42031349E-04  -0.53496415E-04
  11828.952      -0.47252492E-02  -0.47252493E-02  -0.47252492E-02  -0.47252493E-02  -0.22635482E-03  -0.29774739E-05
  11831.512      -0.56114266E-02  -0.56114266E-02  -0.56114266E-02  -0.56114266E-02  -0.57650879E-04   0.30207395E-04
  11833.987      -0.50155099E-02  -0.50155099E-02  -0.50155099E-02  -0.50155099E-02  -0.74266630E-04  -0.82100616E-05
  11836.341      -0.59700973E-02  -0.59700973E-02  -0.59700973E-02  -0.59700973E-02  -0.97301371E-04   0.67028566E-04
  11838.586      -0.54630767E-02  -0.54630767E-02  -0.54630767E-02  -0.54630767E-02   0.23405137E-03  -0.23801110E-05
  11840.723      -0.49445310E-02  -0.49445310E-02  -0.49445310E-02  -0.49445310E-02  -0.10773054E-03  -0.67024193E-04
  11842.744      -0.59109665E-02  -0.59109665E-02  -0.59109665E-02  -0.59109665E-02  -0.44601714E-04   0.85125406E-04
  11844.674      -0.51207702E-02  -0.51207702E-02  -0.51207702E-02  -0.51207702E-02   0.22863399E-03   0.68616888E-05
  11846.489      -0.50547551E-02  -0.50547551E-02  -0.50547551E-02  -0.50547551E-02  -0.18905376E-04  -0.13334658E-03
  11848.194      -0.51873152E-02  -0.51873152E-02  -0.51873152E-02  -0.51873152E-02  -0.24073265E-03  -0.92272638E-04
  11849.796      -0.58508579E-02  -0.58508579E-02  -0.58508579E-02  -0.58508579E-02  -0.32405099E-03   0.18369975E-03
  11851.294      -0.61919057E-02  -0.61919057E-02  -0.61919057E-02  -0.61919057E-02   0.32875494E-03   0.28891440E-03
  11852.677      -0.49038136E-02  -0.49038136E-02  -0.49038136E-02  -0.49038136E-02   0.50822471E-03  -0.11144478E-03
  11853.961      -0.48363687E-02  -0.48363687E-02  -0.48363687E-02  -0.48363687E-02   0.31509429E-04  -0.21724461E-03
  11855.149      -0.48259222E-02  -0.48259222E-02  -0.48259222E-02  -0.48259222E-02  -0.28803974E-04  -0.83407750E-04
  11856.214      -0.49012411E-02  -0.49012411E-02  -0.49012411E-02  -0.49012411E-02  -0.15634150E-03  -0.51724696E-04
  11857.181      -0.51436394E-02  -0.51436395E-02  -0.51436395E-02  -0.51436395E-02  -0.13391890E-03   0.82808191E-04
  11858.044      -0.51463930E-02  -0.51463930E-02  -0.51463930E-02  -0.51463930E-02  -0.47528309E-05   0.22104247E-03
  11858.803      -0.51513519E-02  -0.51513519E-02  -0.51513519E-02  -0.51513519E-02   0.22476672E-03   0.39523580E-03
  11859.459      -0.48284380E-02  -0.48284380E-02  -0.48284380E-02  -0.48284380E-02   0.55434774E-03   0.33671010E-04
  11860.010      -0.44825313E-02  -0.44825313E-02  -0.44825313E-02  -0.44825313E-02   0.26539079E-03  -0.81197704E-03
  11860.506      -0.45504677E-02  -0.45504677E-02  -0.45504677E-02  -0.45504677E-02  -0.29611702E-03  -0.54400457E-03
  11861.008      -0.47782042E-02  -0.47782042E-02  -0.47782042E-02  -0.47782042E-02  -0.27779777E-03   0.52735326E-03
  11861.511      -0.48295711E-02  -0.48295711E-02  -0.48295711E-02  -0.48295711E-02   0.23371480E-03   0.98299061E-03
  11862.001      -0.45462189E-02  -0.45462189E-02  -0.45462189E-02  -0.45462189E-02   0.69791871E-03  -0.30122099E-03
  11862.510      -0.41324899E-02  -0.41324899E-02  -0.41324899E-02  -0.41324899E-02  -0.67144720E-04  -0.94144399E-03
  11863.006      -0.46136926E-02  -0.46136926E-02  -0.46136926E-02  -0.46136926E-02  -0.24813835E-03   0.31116970E-03
  11863.509      -0.43803553E-02  -0.43803553E-02  -0.43803553E-02  -0.43803553E-02   0.24368269E-03   0.62353046E-03
  11864.005      -0.43702292E-02  -0.43702292E-02  -0.43702292E-02  -0.43702292E-02   0.37483093E-03  -0.59715083E-03
  11864.508      -0.40058617E-02  -0.40058617E-02  -0.40058617E-02  -0.40058617E-02  -0.35293071E-03  -0.63219623E-03
  11865.010      -0.47250304E-02  -0.47250305E-02  -0.47250304E-02  -0.47250305E-02  -0.26071595E-03   0.14447913E-02
  11865.507      -0.42663951E-02  -0.42663951E-02  -0.42663951E-02  -0.42663951E-02   0.10908492E-02   0.93355236E-03
  11866.010      -0.36349449E-02  -0.36349449E-02  -0.36349449E-02  -0.36349449E-02   0.67218293E-03  -0.94370000E-03
  11866.506      -0.35946155E-02  -0.35946155E-02  -0.35946155E-02  -0.35946155E-02   0.14771541E-03  -0.78353592E-04
  11867.009      -0.34873033E-02  -0.34873033E-02  -0.34873033E-02  -0.34873033E-02   0.59386851E-03  -0.58759139E-03
  11867.506      -0.30009846E-02  -0.30009846E-02  -0.30009846E-02  -0.30009846E-02  -0.43964095E-03  -0.86992319E-03
  11868.009      -0.39268124E-02  -0.39268124E-02  -0.39268124E-02  -0.39268124E-02  -0.27579370E-03   0.12502551E-02
  11868.506      -0.32767231E-02  -0.32767231E-02  -0.32767231E-02  -0.32767231E-02   0.81036406E-03   0.64521115E-03
  11869.009      -0.31165293E-02  -0.31165293E-02  -0.31165293E-02  -0.31165293E-02   0.36935292E-03  -0.12626502E-02
  11869.506      -0.29074071E-02  -0.29074071E-02  -0.29074071E-02  -0.29074071E-02  -0.45215985E-03  -0.55189092E-03
  11870.009      -0.35686892E-02  -0.35686892E-02  -0.35686892E-02  -0.35686892E-02  -0.18253799E-03   0.64172991E-03
  11870.506      -0.30899816E-02  -0.30899816E-02  -0.30899816E-02  -0.30899816E-02   0.18969840E-03   0.79549236E-03
  11870.997      -0.33812672E-02  -0.33812672E-02  -0.33812672E-02  -0.33812672E-02   0.60340846E-03   0.35441015E-03
  11871.506      -0.24863921E-02  -0.24863921E-02  -0.24863921E-02  -0.24863921E-02   0.54421488E-03  -0.23053442E-03
  11872.009      -0.28301952E-02  -0.28301952E-02  -0.28301952E-02  -0.28301952E-02   0.36996932E-03   0.37736692E-03
  11872.519      -0.21117242E-02  -0.21117242E-02  -0.21117242E-02  -0.21117242E-02   0.92637435E-03  -0.74647820E-03
  11873.016      -0.18976141E-02  -0.18976141E-02  -0.18976141E-02  -0.18976141E-02  -0.38151029E-03  -0.15397899E-02
  11873.507      -0.24888090E-02  -0.24888090E-02  -0.24888090E-02  -0.24888090E-02  -0.59555401E-03   0.13544078E-02
  11874.011      -0.24899521E-02  -0.24899521E-02  -0.24899521E-02  -0.24899521E-02   0.96558367E-03   0.12579713E-02
  11874.508      -0.15224528E-02  -0.15224529E-02  -0.15224528E-02  -0.15224529E-02   0.66342368E-03  -0.90357617E-03
  11875.005      -0.18299783E-02  -0.18299783E-02  -0.18299783E-02  -0.18299783E-02   0.66706095E-04  -0.29102689E-03
  11875.509      -0.14556867E-02  -0.14556867E-02  -0.14556867E-02  -0.14556867E-02   0.37213487E-03   0.78303643E-04
  11876.019      -0.14528940E-02  -0.14528940E-02  -0.14528940E-02  -0.14528940E-02   0.14605118E-03   0.73493322E-03
  11876.498      -0.13112567E-02  -0.13112567E-02  -0.13112567E-02  -0.13112567E-02   0.10989103E-02   0.86398611E-03
  11877.008      -0.36607168E-03  -0.36607168E-03  -0.36607168E-03  -0.36607168E-03   0.10005334E-02  -0.12419263E-02
  11877.505      -0.30321927E-03  -0.30321927E-03  -0.30321927E-03  -0.30321927E-03  -0.15233045E-03  -0.11889419E-02
  11878.009      -0.51861539E-03  -0.51861539E-03  -0.51861539E-03  -0.51861539E-03  -0.19007302E-03   0.42205922E-03
  11878.507      -0.49357740E-03  -0.49357740E-03  -0.49357740E-03  -0.49357740E-03   0.27036185E-03   0.73853515E-03
  11879.011      -0.24784799E-03  -0.24784800E-03  -0.24784799E-03  -0.24784800E-03   0.54956993E-03   0.44230144E-03
  11879.508       0.56871845E-04   0.56871843E-04   0.56871845E-04   0.56871843E-04   0.71337097E-03   0.19239625E-03
  11880.006       0.46238415E-03   0.46238415E-03   0.46238415E-03   0.46238415E-03   0.74111964E-03   0.19131766E-03
  11880.504       0.79480467E-03   0.79480467E-03   0.79480467E-03   0.79480467E-03   0.90386597E-03  -0.41787983E-03
  11881.008       0.13680578E-02   0.13680578E-02   0.13680578E-02   0.13680578E-02   0.32240405E-03  -0.13476984E-02
  11881.512       0.11198524E-02   0.11198524E-02   0.11198524E-02   0.11198524E-02  -0.45488361E-03   0.19923260E-03
  11882.016       0.90944419E-03   0.90944419E-03   0.90944419E-03   0.90944419E-03   0.52327037E-03   0.18960689E-02
  11882.508       0.16410297E-02   0.16410297E-02   0.16410297E-02   0.16410297E-02   0.14336010E-02   0.52129005E-03
  11883.006       0.23287092E-02   0.23287092E-02   0.23287092E-02   0.23287092E-02   0.10393475E-02  -0.13931180E-02
  11883.517       0.26892117E-02   0.26892117E-02   0.26892117E-02   0.26892117E-02   0.28641525E-04   0.17264633E-04
  11884.009       0.23574195E-02   0.23574195E-02   0.23574195E-02   0.23574195E-02   0.10566536E-02   0.98959944E-03
  11884.507       0.37355101E-02   0.37355101E-02   0.37355101E-02   0.37355101E-02   0.10085429E-02  -0.12486878E-02
  11885.005       0.33623316E-02   0.33623316E-02   0.33623316E-02   0.33623316E-02  -0.18753892E-03   0.21551784E-03
  11885.510       0.35474648E-02   0.35474648E-02   0.35474648E-02   0.35474648E-02   0.12246426E-02   0.10048112E-02
  11886.008       0.45904032E-02   0.45904032E-02   0.45904032E-02   0.45904032E-02   0.82008571E-03  -0.61930375E-03
  11886.513       0.43698467E-02   0.43698467E-02   0.43698467E-02   0.43698467E-02   0.60360482E-03   0.16769353E-03
  11887.005       0.51920765E-02   0.51920765E-02   0.51920765E-02   0.51920765E-02   0.98724262E-03  -0.18746453E-03
  11887.503       0.53480067E-02   0.53480067E-02   0.53480067E-02   0.53480067E-02   0.41786497E-03   0.29119925E-03
  11888.008       0.56112368E-02   0.56112368E-02   0.56112368E-02   0.56112368E-02   0.12793446E-02   0.11018595E-02
  11888.507       0.66314452E-02   0.66314452E-02   0.66314452E-02   0.66314452E-02   0.15232504E-02  -0.34704004E-03
  11889.005       0.71300698E-02   0.71300698E-02   0.71300698E-02   0.71300698E-02   0.93331097E-03  -0.53306542E-03
  11889.516       0.75736226E-02   0.75736226E-02   0.75736226E-02   0.75736226E-02   0.98512087E-03   0.62010199E-03
  11890.009       0.81186386E-02   0.81186386E-02   0.81186386E-02   0.81186386E-02   0.15555833E-02  -0.28428083E-03
  11890.514       0.91251614E-02   0.91251614E-02   0.91251614E-02   0.91251614E-02   0.70157917E-03  -0.52205597E-03
  11891.006       0.88184638E-02   0.88184638E-02   0.88184638E-02   0.88184638E-02   0.10348325E-02   0.12452986E-02
  11891.505       0.10151094E-01   0.10151094E-01   0.10151094E-01   0.10151094E-01   0.19361682E-02  -0.77231812E-03
  11892.010       0.10761990E-01   0.10761990E-01   0.10761990E-01   0.10761990E-01   0.25957956E-03  -0.93724901E-03
  11892.496       0.10408468E-01   0.10408468E-01   0.10408468E-01   0.10408468E-01   0.10068858E-02   0.12067587E-02
  11893.008       0.11766660E-01   0.11766660E-01   0.11766660E-01   0.11766660E-01   0.14636834E-02  -0.18546501E-03
  11893.507       0.11887227E-01   0.11887227E-01   0.11887227E-01   0.11887227E-01   0.81951054E-03   0.41248165E-03
  11893.993       0.12574370E-01   0.12574370E-01   0.12574370E-01   0.12574370E-01   0.18702253E-02   0.16319720E-02
  11894.517       0.13776715E-01   0.13776715E-01   0.13776715E-01   0.13776715E-01   0.24682919E-02  -0.49326181E-03
  11895.004       0.15068579E-01   0.15068579E-01   0.15068579E-01   0.15068579E-01   0.13717843E-02  -0.74517889E-03
  11895.509       0.15137663E-01   0.15137663E-01   0.15137663E-01   0.15137663E-01   0.17289999E-02   0.54557140E-03
  11896.008       0.16805359E-01   0.16805359E-01   0.16805359E-01   0.16805359E-01   0.19198107E-02  -0.70691773E-04
  11896.507       0.17054402E-01   0.17054402E-01   0.17054402E-01   0.17054402E-01   0.16584212E-02   0.73194006E-03
  11897.001       0.18451010E-01   0.18451010E-01   0.18451010E-01   0.18451010E-01   0.26461148E-02   0.77452799E-04
  11897.506       0.19696812E-01   0.19696812E-01   0.19696812E-01   0.19696812E-01   0.17357656E-02  -0.11205059E-02
  11898.005       0.20195281E-01   0.20195281E-01   0.20195281E-01   0.20195281E-01   0.15201185E-02   0.11575140E-02
  11898.511       0.21224379E-01   0.21224379E-01   0.21224379E-01   0.21224379E-01   0.28989514E-02   0.16039891E-02
  11899.011       0.23108728E-01   0.23108728E-01   0.23108728E-01   0.23108728E-01   0.31321275E-02  -0.60743591E-03
  11899.510       0.24353061E-01   0.24353061E-01   0.24353061E-01   0.24353061E-01   0.22921837E-02  -0.64486728E-03
  11899.997       0.25370196E-01   0.25370196E-01   0.25370196E-01   0.25370196E-01   0.24959015E-02   0.15267237E-02
  11900.509       0.26846716E-01   0.26846716E-01   0.26846716E-01   0.26846716E-01   0.38175334E-02   0.12904989E-02
  11901.003       0.29208344E-01   0.29208344E-01   0.29208344E-01   0.29208344E-01   0.37933691E-02  -0.11939868E-02
  11901.502       0.30613911E-01   0.30613911E-01   0.30613911E-01   0.30613911E-01   0.26317851E-02  -0.13698258E-02
  11902.008       0.31854604E-01   0.31854604E-01   0.31854604E-01   0.31854604E-01   0.24160092E-02   0.12978339E-02
  11902.508       0.33043450E-01   0.33043450E-01   0.33043450E-01   0.33043450E-01   0.39368869E-02   0.20448170E-02
  11903.007       0.35789522E-01   0.35789522E-01   0.35789522E-01   0.35789522E-01   0.44598038E-02  -0.25893876E-03
  11903.514       0.37529121E-01   0.37529121E-01   0.37529121E-01   0.37529121E-01   0.36764463E-02  -0.82133106E-04
  11904.007       0.39464866E-01   0.39464866E-01   0.39464866E-01   0.39464866E-01   0.43776954E-02   0.13949262E-02
  11904.501       0.41851657E-01   0.41851657E-01   0.41851657E-01   0.41851657E-01   0.50537965E-02   0.13389249E-02
  11905.001       0.44486823E-01   0.44486823E-01   0.44486823E-01   0.44486823E-01   0.57081850E-02   0.38700496E-03
  11905.507       0.47594662E-01   0.47594662E-01   0.47594662E-01   0.47594662E-01   0.54431621E-02  -0.12245548E-02
  11906.013       0.49996936E-01   0.49996936E-01   0.49996936E-01   0.49996936E-01   0.44685682E-02   0.18118097E-02
  11906.507       0.52063677E-01   0.52063677E-01   0.52063677E-01   0.52063677E-01   0.72551530E-02   0.32429212E-02
  11907.007       0.57208558E-01   0.57208558E-01   0.57208558E-01   0.57208558E-01   0.76920318E-02  -0.12304493E-03
  11907.507       0.59758017E-01   0.59758017E-01   0.59758017E-01   0.59758017E-01   0.71320712E-02   0.58137507E-03
  11908.008       0.64343482E-01   0.64343482E-01   0.64343482E-01   0.64343482E-01   0.82736395E-02   0.76025541E-03
  11908.514       0.68086262E-01   0.68086262E-01   0.68086262E-01   0.68086262E-01   0.78973443E-02   0.49974677E-03
  11909.014       0.72293739E-01   0.72293739E-01   0.72293739E-01   0.72293739E-01   0.87767345E-02   0.25855464E-02
  11909.508       0.76814725E-01   0.76814725E-01   0.76814725E-01   0.76814725E-01   0.10468670E-01   0.29488730E-02
  11910.003       0.82640973E-01   0.82640973E-01   0.82640973E-01   0.82640973E-01   0.11691401E-01   0.42432106E-02
  11910.509       0.88515478E-01   0.88515478E-01   0.88515478E-01   0.88515478E-01   0.14715275E-01   0.37846934E-02
  11911.004       0.97368020E-01   0.97368020E-01   0.97368020E-01   0.97368020E-01   0.15479122E-01   0.24450578E-03
  11911.510       0.10400853       0.10400853       0.10400853       0.10400853       0.14960001E-01   0.42363408E-02
  11912.005       0.11234448       0.11234448       0.11234448       0.11234448       0.19720123E-01   0.61247815E-02
  11912.505       0.12363005       0.12363005       0.12363005       0.12363005       0.21054159E-01   0.37935732E-02
  11913.006       0.13342390       0.13342390       0.13342390       0.13342390       0.23518248E-01   0.48534375E-02
  11913.506       0.14717888       0.14717888       0.14717888       0.14717888       0.25913906E-01   0.67896574E-02
  11914.007       0.15937409       0.15937409       0.15937409       0.15937409       0.30317411E-01   0.69344668E-02
  11914.508       0.17753873       0.17753873       0.17753873       0.17753873       0.32858081E-01   0.96436050E-02
  11915.009       0.19228145       0.19228145       0.19228145       0.19228145       0.39975482E-01   0.12914322E-01
  11915.510       0.21758217       0.21758217       0.21758217       0.21758217       0.45794357E-01   0.11538552E-01
  11916.011       0.23815824       0.23815824       0.23815824       0.23815824       0.51534803E-01   0.21393149E-01
  11916.505       0.26889022       0.26889022       0.26889022       0.26889022       0.67093376E-01   0.26642168E-01
  11917.006       0.30496311       0.30496311       0.30496311       0.30496311       0.78062410E-01   0.27351557E-01
  11917.507       0.34710875       0.34710875       0.34710875       0.34710875       0.94499636E-01   0.38573014E-01
  11918.008       0.39966120       0.39966120       0.39966120       0.39966120       0.11671643       0.45374060E-01
  11918.509       0.46408196       0.46408196       0.46408196       0.46408196       0.13997352       0.39798428E-01
  11919.011       0.53994266       0.53994266       0.53994266       0.53994266       0.15660241       0.66960968E-01
  11919.512       0.62104455       0.62104455       0.62104455       0.62104455       0.20708850       0.80717376E-01
  11920.007       0.74624422       0.74624422       0.74624422       0.74624422       0.23701306       0.50789195E-01
  11920.508       0.85718067       0.85718067       0.85718067       0.85718067       0.25768977       0.24391712E-01
  11921.009        1.0046040        1.0046040        1.0046040        1.0046040       0.26146819      -0.43793513E-02
  11921.505        1.1177337        1.1177337        1.1177337        1.1177337       0.25332575      -0.47113697E-01
  11922.006        1.2570684        1.2570684        1.2570684        1.2570684       0.21451468      -0.12956874
  11922.501        1.3315191        1.3315191        1.3315191        1.3315191       0.12419754      -0.16993080
  11923.009        1.3816261        1.3816261        1.3816261        1.3816261       0.44091084E-01  -0.17487592
  11923.498        1.3754690        1.3754690        1.3754690        1.3754690      -0.50118772E-01  -0.13379787
  11924.006        1.3316627        1.3316627        1.3316627        1.3316627      -0.89292013E-01  -0.32287082E-01
  11924.507        1.2853377        1.2853377        1.2853377        1.2853377      -0.82709353E-01   0.35660676E-01
  11925.009        1.2486887        1.2486887        1.2486887        1.2486887      -0.53517222E-01   0.71669110E-01
  11925.511        1.2316439        1.2316439        1.2316439        1.2316439      -0.10803735E-01   0.67719841E-01
  11926.019        1.2377802        1.2377802        1.2377802        1.2377802       0.14859502E-01   0.34999443E-01
  11926.508        1.2464647        1.2464647        1.2464647        1.2464647       0.24104709E-01   0.99866249E-03
  11927.004        1.2615233        1.2615233        1.2615233        1.2615233       0.15843184E-01  -0.42796250E-01
  11927.505        1.2622683        1.2622683        1.2622683        1.2622683      -0.18584550E-01  -0.67926590E-01
  11928.014        1.2427529        1.2427529        1.2427529        1.2427529      -0.52762672E-01  -0.66700534E-01
  11928.509        1.2093051        1.2093051        1.2093051        1.2093051      -0.85538545E-01  -0.67853725E-01
  11929.005        1.1579415        1.1579415        1.1579415        1.1579415      -0.12003964      -0.35120973E-01
  11929.507        1.0895176        1.0895176        1.0895176        1.0895176      -0.12058576      -0.21519829E-02
  11929.997        1.0383566        1.0383566        1.0383566        1.0383566      -0.12217376      -0.60284138E-02
  11930.505       0.96758816       0.16346263       0.96758841       0.16346288      -0.12660212       0.14116104E-01
  11931.001       0.91121005       0.22610708       0.91121064       0.22610768      -0.10799696       0.28424225E-01
  11931.516       0.85845723       0.28779443       0.85845828       0.28779548      -0.97879443E-01   0.29592505E-01
  11932.006       0.81289014       0.34346115       0.81289172       0.34346272      -0.78271288E-01   0.34667021E-01
  11932.502       0.78128174       0.39687206       0.78128394       0.39687425      -0.63697760E-01   0.29038180E-01
  11933.004       0.74929430       0.44799792       0.74929722       0.44800083      -0.49279569E-01   0.32615847E-01
  11933.506       0.73177056       0.49624587       0.73177429       0.49624960      -0.30928619E-01   0.25488141E-01
  11934.015       0.71802547       0.54223312       0.71803012       0.54223777      -0.23511059E-01   0.22534244E-01
  11934.505       0.70829007       0.58391004       0.70829570       0.58391568      -0.84236688E-02   0.29455784E-01
  11935.001       0.70971636       0.62355700       0.70972308       0.62356372       0.55441268E-02   0.17938914E-01
  11935.510       0.71386191       0.66160845       0.71386984       0.66161638       0.96049399E-02   0.12064626E-01
  11936.006       0.71937029       0.69629879       0.71937948       0.69630799       0.17670283E-01   0.20483736E-01
  11936.503       0.73140497       0.72865970       0.73141553       0.72867026       0.29941193E-01   0.19643788E-01
  11937.006       0.74928453       0.75914030       0.74929657       0.75915234       0.37296391E-01   0.66152135E-02
  11937.508       0.76890276       0.78739930       0.76891637       0.78741291       0.36592128E-01   0.60356925E-03
  11938.005       0.78585105       0.81321640       0.78586629       0.81323165       0.37899538E-01   0.12541378E-01
  11938.508       0.80677956       0.83731380       0.80679657       0.83733080       0.49125982E-01   0.50280680E-02
  11938.992       0.83433839       0.85865599       0.83435718       0.85867478       0.42862241E-01  -0.12678174E-01
  11939.507       0.84962037       0.87944586       0.84964115       0.87946664       0.36454147E-01  -0.37978265E-03
  11940.010       0.87145600       0.89790846       0.87147882       0.89793128       0.42475547E-01   0.55147250E-02
  11940.507       0.89208317       0.91445820       0.89210810       0.91448313       0.41967218E-01  -0.44599456E-02
  11941.010       0.91341483       0.92958780       0.91344198       0.92961496       0.38016493E-01  -0.87315890E-02
  11941.501       0.92986016       0.94285049       0.92988959       0.94287991       0.33290638E-01  -0.26596096E-02
  11942.010       0.94670546       0.95513692       0.94673733       0.95516879       0.35356883E-01   0.17302320E-03
  11942.501       0.96521705       0.96563049       0.96525137       0.96566481       0.33463661E-01  -0.15271776E-01
  11943.010       0.98017247       0.97521337       0.98020943       0.97525033       0.20083580E-01  -0.11052077E-01
  11943.513       0.98555368       0.98345343       0.98559334       0.98349308       0.22272328E-01   0.82294033E-02
  11944.010        1.0024515       0.99047990        1.0024939       0.99052232       0.28315452E-01  -0.48683436E-02
  11944.507        1.0137049       0.99648123        1.0137502       0.99652650       0.17432220E-01  -0.18974962E-01
  11945.011        1.0198924        1.0015972        1.0199407        1.0016455       0.93310026E-02  -0.93965639E-02
  11945.502        1.0229827        1.0057348        1.0230340        1.0057861       0.80892168E-02  -0.67302636E-02
  11945.999        1.0278862        1.0091503        1.0279406        1.0092047       0.26801562E-02  -0.11210978E-01
  11946.509        1.0256816        1.0119252        1.0257393        1.0119829      -0.32002384E-02  -0.71809329E-02
  11947.006        1.0246635        1.0140078        1.0247246        1.0140688      -0.45510432E-02  -0.42224770E-02
  11947.516        1.0210983        1.0155881        1.0211628        1.0156526      -0.74526949E-02  -0.52750206E-02
  11948.013        1.0171572        1.0166721        1.0172252        1.0167401      -0.98640440E-02  -0.67558563E-02
  11948.517        1.0112244        1.0173930        1.0112960        1.0174647      -0.14215307E-01  -0.75238471E-02
  11949.002        1.0031025        1.0178079        1.0031778        1.0178832      -0.17302872E-01  -0.78603125E-02
  11949.499       0.99422257        1.0180287       0.99430161        1.0181077      -0.21938850E-01  -0.40015911E-03
  11950.022       0.98072708        1.0181260       0.98081020        1.0182091      -0.17710994E-01   0.87614640E-02
  11950.501       0.97648678        1.0181716       0.97657372        1.0182585      -0.13165120E-01  -0.46880321E-03
  11951.011       0.96770546        1.0182142       0.96779657        1.0183053      -0.18174687E-01  -0.44649772E-03
  11951.509       0.95817033        1.0182512       0.95826560        1.0183464      -0.13615101E-01   0.20479606E-02
  11952.025       0.95389839        1.0182848       0.95399807        1.0183844      -0.16097850E-01   0.15121462E-02
  11952.516       0.94194531        1.0183123       0.94204928        1.0184163      -0.12091008E-01   0.84799810E-02
  11953.008       0.94201172        1.0183355       0.94212007        1.0184439      -0.77611810E-02  -0.20601242E-02
  11953.506       0.93426562        1.0183548       0.93437851        1.0184676      -0.14129501E-01  -0.19625729E-02
  11954.010       0.92785395        1.0183698       0.92797153        1.0184874      -0.97276790E-02   0.96611681E-02
  11954.508       0.92451751        1.0183804       0.92463981        1.0185027      -0.44480448E-02   0.83061600E-02
  11955.006       0.92342370        1.0183869       0.92355081        1.0185140      -0.14547437E-02  -0.24912080E-03
  11955.510       0.92305957        1.0183891       0.92319164        1.0185212      -0.46977136E-02  -0.13039100E-02
  11956.008       0.91871518        1.0183872       0.91885226        1.0185243      -0.27616527E-02   0.35866396E-02
  11956.513       0.92029129        1.0183812       0.92043352        1.0185234      -0.11024661E-02   0.55594140E-02
  11957.011       0.91760996        1.0183712       0.91775738        1.0185186       0.28116598E-02   0.94358420E-02
  11957.509       0.92309283        1.0183573       0.92324553        1.0185100       0.82994070E-02   0.45384729E-02
  11958.007       0.92587949        1.0183395       0.92603756        1.0184975       0.73337943E-02  -0.73805361E-03
  11958.499       0.93035548        1.0183181       0.93051895        1.0184816       0.75685125E-02   0.10020868E-02
  11959.016       0.93351688        1.0182916       0.93368612        1.0184609       0.83450001E-02   0.54958836E-02
  11959.502       0.93872468        1.0182631       0.93889944        1.0184379       0.13080334E-01   0.25013175E-02
  11960.007       0.94647426        1.0182297       0.94665483        1.0184103       0.10822805E-01  -0.47468996E-02
  11960.499       0.94951394        1.0181936       0.94970028        1.0183800       0.83481499E-02  -0.80218731E-04
  11960.998       0.95474477        1.0181534       0.95493705        1.0183457       0.10743333E-01   0.41229682E-02
  11961.515       0.96042594        1.0181080       0.96062447        1.0183066       0.12535849E-01   0.15636835E-02
  11962.001       0.96732198        1.0180619       0.96752649        1.0182664       0.12312176E-01  -0.28853297E-02
  11962.506       0.97262731        1.0180106       0.97283811        1.0182214       0.96764870E-02  -0.58503680E-02
  11963.030       0.97727425        1.0179536       0.97749168        1.0181711       0.62950726E-02   0.33147968E-02
  11963.503       0.97890601        1.0178990       0.97912953        1.0181225       0.12982665E-01   0.10141173E-01
  11964.008       0.98998168        1.0178374       0.99021178        1.0180675       0.16221253E-01   0.18804508E-02
  11964.507       0.99518728        1.0177734       0.99542397        1.0180100       0.14870074E-01  -0.82479305E-03
  11965.018        1.0050019        1.0177044        1.0052455        1.0179479       0.15388129E-01  -0.28069087E-02
  11965.511        1.0106370        1.0176348        1.0108872        1.0178851       0.12051938E-01  -0.33126247E-02
  11966.004        1.0168767        1.0175622        1.0171337        1.0178193       0.12124200E-01   0.10533845E-02
  11966.515        1.0228109        1.0174838        1.0230750        1.0177479       0.13109641E-01   0.96753763E-03
  11967.002        1.0299588        1.0174062        1.0302299        1.0176773       0.13089706E-01   0.19252100E-02
  11967.507        1.0357932        1.0173227        1.0360715        1.0176010       0.15019064E-01   0.21094485E-02
  11967.994        1.0448562        1.0172395        1.0451416        1.0175249       0.15182068E-01  -0.85679979E-02
  11968.262        1.0472542        1.0171925        1.0475435        1.0174818       0.85510826E-02  -0.27134988E-02
  11968.773        1.0515252        1.0171006        1.0518221        1.0173975       0.13065810E-01   0.51191183E-02
  11969.316        1.0610321        1.0169999        1.0613371        1.0173049       0.13949193E-01   0.14545519E-02
  11969.903        1.0672808        1.0168875        1.0675948        1.0172015       0.14708726E-01   0.60509040E-03
  11970.527        1.0788399        1.0167640        1.0791635        1.0170875       0.14681776E-01  -0.15495287E-02
  11971.207        1.0864332        1.0166247        1.0867675        1.0169589       0.12687366E-01  -0.37635531E-02
  11971.938        1.0967393        1.0164700        1.0970852        1.0168159       0.93721550E-02  -0.18137692E-02
  11972.731        1.1007098        1.0162962        1.1010686        1.0166550       0.99244516E-02   0.12850467E-02
  11973.592        1.1131603        1.0161006        1.1135333        1.0164737       0.11498393E-01  -0.14503015E-02
  11974.529        1.1213897        1.0158804        1.1217785        1.0162692       0.73160843E-02  -0.44907634E-02
  11975.547        1.1274632        1.0156324        1.1278696        1.0160388       0.27189508E-02  -0.34790879E-02
  11976.647        1.1271476        1.0153550        1.1275734        1.0157808      -0.51580132E-04  -0.25415074E-02
  11977.840        1.1273449        1.0150433        1.1277923        1.0154907      -0.31087258E-02  -0.21756728E-02
  11979.084        1.1195710        1.0147074        1.1200414        1.0151778      -0.53541298E-02  -0.21049689E-02
  11980.359        1.1138579        1.0143521        1.1143525        1.0148468      -0.84111424E-02  -0.24343248E-02
  11981.635        1.0981159        1.0139866        1.0986354        1.0145061      -0.11563606E-01  -0.12843661E-02
  11982.923        1.0842111        1.0136079        1.0847563        1.0141531      -0.11704000E-01  -0.53141850E-03
  11984.224        1.0678095        1.0132167        1.0683813        1.0137885      -0.12939661E-01  -0.40693629E-03
  11985.538        1.0503726        1.0128137        1.0509719        1.0134130      -0.12768179E-01  -0.90765835E-04
  11986.865        1.0340926        1.0123995        1.0347203        1.0130272      -0.13179346E-01   0.76575386E-03
  11988.198        1.0153169        1.0119771        1.0159738        1.0126340      -0.10731351E-01   0.14941597E-02
  11989.557        1.0052049        1.0115410        1.0058923        1.0122283      -0.91572175E-02   0.13516493E-03
  11990.916       0.99043122        1.0111003       0.99114975        1.0118188      -0.10364026E-01   0.31018507E-03
  11992.294       0.97683855        1.0106498       0.97758939        1.0114006      -0.83082409E-02   0.14334499E-02
  11993.678       0.96747804        1.0101947       0.96826205        1.0109787      -0.64038342E-02   0.16176127E-02
  11995.076       0.95902244        1.0097339       0.95984065        1.0105521      -0.38078807E-02   0.16379343E-02
  11996.493       0.95676228        1.0092664       0.95761592        1.0101200      -0.17945232E-02   0.98594543E-03
  11997.903       0.95394878        1.0088017       0.95483843        1.0096914      -0.10203172E-02   0.70872874E-03
  11999.346       0.95385121        1.0083286       0.95477846        1.0092559       0.22755075E-03   0.46060992E-03
  12000.801       0.95460816        1.0078547       0.95557412        1.0088206       0.31439217E-03   0.33572495E-03
  12002.244       0.95476245        1.0073893       0.95576759        1.0083944       0.12006159E-02   0.84327509E-03
  12003.719       0.95811143        1.0069197       0.95915742        1.0079657       0.27749845E-02   0.35073845E-03
  12005.219       0.96301831        1.0064495       0.96410667        1.0075379       0.22440979E-02   0.48125597E-03
  12006.701       0.96480378        1.0059941       0.96593484        1.0071251       0.42101861E-02   0.69882776E-03
  12008.215       0.97562992        1.0055393       0.97680542        1.0067148       0.43374365E-02  -0.84887879E-03
  12009.735       0.97796313        1.0050947       0.97918415        1.0063157       0.16347727E-02  -0.31396007E-03
  12011.268       0.98062170        1.0046601       0.98188948        1.0059279       0.33787594E-02   0.49079535E-03
  12012.815       0.98836802        1.0042368       0.98968387        1.0055526       0.31461770E-02  -0.46722743E-03
  12014.374       0.99039215        1.0038251       0.99175736        1.0051903       0.19277846E-02  -0.33089697E-03
  12015.946       0.99440469        1.0034250       0.99582059        1.0048409       0.21100062E-02   0.69357122E-04
  12017.531       0.99705428        1.0030367       0.99852224        1.0045046       0.21467728E-02  -0.37529386E-03
  12019.129        1.0012387        1.0026601        1.0027601        1.0041815       0.91529577E-03  -0.59070821E-03
  12020.728       0.99998030        1.0022981        1.0015561        1.0038738       0.25839679E-03   0.53466077E-03
  12022.346        1.0020699        1.0019463        1.0037017        1.0035781       0.26350856E-02   0.48429031E-03
  12023.977        1.0085417        1.0016062        1.0102310        1.0032955       0.18318560E-02  -0.10648137E-02
  12025.615        1.0080577        1.0012790        1.0098057        1.0030270      -0.84547103E-03  -0.92782068E-03
  12027.272        1.0057560        1.0009622        1.0075645        1.0027707      -0.12251275E-02   0.36034880E-03
  12028.942        1.0039813        1.0006571        1.0058517        1.0025275       0.35351752E-03   0.31836424E-03
  12030.625        1.0069416        1.0003636        1.0088754        1.0022974      -0.15749306E-03  -0.53849565E-03
  12032.309        1.0034510        1.0000836        1.0054494        1.0020820      -0.14595973E-02  -0.14149787E-03
  12034.012        1.0019982       0.99981399        1.0040630        1.0018788      -0.63671804E-03   0.34434101E-03
  12035.728        1.0012738       0.99955562        1.0034066        1.0016884      -0.28215769E-03  -0.17547002E-03
  12037.458        1.0010260       0.99930843        1.0032284        1.0015108      -0.12413175E-02  -0.34801792E-03
  12039.194       0.99697204       0.99907312       0.99924547        1.0013465      -0.14882138E-02   0.43998909E-03
  12040.943       0.99583882       0.99884865       0.99818494        1.0011948       0.29226446E-03   0.94919450E-03
  12042.718       0.99800210       0.99863336        1.0004232        1.0010544       0.18571273E-02   0.36947437E-04
  12044.494        1.0024331       0.99843014        1.0049303        1.0009273       0.42345742E-03  -0.82824724E-03
  12046.270       0.99950618       0.99823857        1.0020807        1.0008131      -0.10847241E-02  -0.15161305E-04
  12048.085       0.99853808       0.99805449        1.0011929        1.0007093       0.36901620E-03   0.64067269E-03
  12049.900        1.0008456       0.99788162        1.0035819        1.0006179       0.12407897E-02   0.18639836E-03
  12051.722        1.0030512       0.99771896        1.0058705        1.0005383       0.10470030E-02   0.61685090E-04
  12053.557        1.0046749       0.99756563        1.0075792        1.0004698       0.14663967E-02   0.16744392E-03
  12055.412        1.0084624       0.99742088        1.0114537        1.0004122       0.16648878E-02  -0.11618646E-03
  12057.274        1.0108627       0.99728540        1.0139427        1.0003654       0.10345781E-02  -0.32146550E-03
  12059.149        1.0123284       0.99715837        1.0154990        1.0003290       0.46363550E-03  -0.95990489E-04
  12061.037        1.0126075       0.99703945        1.0158707        1.0003027       0.67333710E-03   0.15296228E-03
  12062.933        1.0148760       0.99692864        1.0182336        1.0002862       0.10423836E-02   0.72658239E-04
  12064.854        1.0165857       0.99682450        1.0200402        1.0002790       0.95063727E-03  -0.38487258E-03
  12066.769        1.0185232       0.99672832        1.0220758        1.0002809      -0.43421858E-03  -0.27144807E-03
  12068.704        1.0149137       0.99663831        1.0185667        1.0002913      -0.94600683E-04  -0.14235693E-03
  12070.653        1.0181558       0.99655439        1.0219113        1.0003099      -0.98707594E-03  -0.33855675E-03
  12072.602        1.0110666       0.99647658        1.0149261        1.0003361      -0.14141256E-02   0.83994162E-04
  12074.590        1.0125884       0.99640292        1.0165555        1.0003700      -0.65639093E-03  -0.32277611E-03
  12076.559        1.0084691       0.99633500        1.0125441        1.0004100      -0.26914475E-02  -0.55257767E-03
  12078.561        1.0018999       0.99627050        1.0060862        1.0004568      -0.28508426E-02   0.31224590E-03
  12080.576       0.99701665       0.99620954        1.0013165        1.0005093      -0.14370933E-02   0.48902519E-03
  12082.586       0.99611571       0.99615207        1.0005302        1.0005666      -0.88256515E-03   0.25933119E-04
  12084.622       0.99344641       0.99609655       0.99797865        1.0006288      -0.13321861E-02  -0.21984868E-03
  12086.671       0.99067400       0.99604274       0.99532632        1.0006951      -0.17806030E-02  -0.62643100E-04
  12088.727       0.98613650       0.99599014       0.99091088        1.0007645      -0.15893548E-02   0.15005222E-03
  12090.797       0.98411648       0.99593790       0.98901533        1.0008368      -0.11615026E-02   0.31651086E-03
  12092.880       0.98131301       0.99588533       0.98633875        1.0009111      -0.27494849E-03   0.20940066E-03
  12094.976       0.98296728       0.99583168       0.98812237        1.0009868      -0.28627069E-03  -0.28453848E-03
  12097.086       0.98010876       0.99577619       0.98539568        1.0010631      -0.14719165E-02  -0.22500985E-03
  12099.204       0.97674505       0.99571827       0.98216593        1.0011392      -0.12374548E-02   0.46990046E-03
  12101.322       0.97486789       0.99565730       0.98042446        1.0012139       0.51820588E-03   0.67487183E-03
  12103.472       0.97895706       0.99559152       0.98465312        1.0012876       0.16433031E-02  -0.31819504E-04
  12105.624       0.98193738       0.99552101       0.98777471        1.0013583       0.38131837E-03  -0.47373572E-03
  12107.795       0.98060539       0.99544428       0.98658704        1.0014259      -0.40451432E-03   0.30690860E-04
  12109.967       0.98018037       0.99536108       0.98630818        1.0014889       0.51462412E-03   0.43074318E-03
  12112.159       0.98285131       0.99526978       0.98912840        1.0015469       0.14753350E-02   0.12069115E-03
  12114.371       0.98667789       0.99516946       0.99310745        1.0015990       0.10461600E-02   0.88713353E-06
  12116.584       0.98748057       0.99506084       0.99406447        1.0016448       0.14792606E-02   0.10144734E-04
  12118.811       0.99324492       0.99494337       0.99998598        1.0016844       0.10911965E-02  -0.23295769E-03
  12121.051       0.99235461       0.99481703       0.99925565        1.0017181       0.43870851E-03   0.12805946E-03
  12123.305       0.99521648       0.99468183        1.0022804        1.0017457       0.16666958E-02   0.21377925E-03
  12125.572       0.99989025       0.99453777        1.0071199        1.0017674       0.14052687E-02  -0.26546793E-03
  12127.840        1.0015905       0.99438574        1.0089879        1.0017831       0.46258633E-03  -0.99496524E-04
  12130.135        1.0020011       0.99422403        1.0095701        1.0017931       0.95125606E-03   0.25658572E-04
  12132.437        1.0059633       0.99405398        1.0137065        1.0017972       0.58053622E-03  -0.22216207E-03
  12134.753        1.0046820       0.99387517        1.0126024        1.0017956      -0.74688375E-04  -0.26285814E-05
  12137.076        1.0056168       0.99368817        1.0137171        1.0017884       0.56834223E-03   0.79515893E-04
  12139.413        1.0073305       0.99349249        1.0156136        1.0017756       0.29585569E-03  -0.25301018E-03
  12141.757        1.0070018       0.99328877        1.0154704        1.0017574      -0.61602371E-03  -0.30383195E-03
  12144.128        1.0044259       0.99307531        1.0130842        1.0017337      -0.11367424E-02  -0.62996989E-04
  12146.487        1.0016252       0.99285571        1.0104744        1.0017049      -0.91398687E-03   0.16957255E-03
  12148.886        1.0000776       0.99262522        1.0091230        1.0016706      -0.33001792E-03   0.16985052E-03
  12151.285        1.0000418       0.99238756        1.0092856        1.0016313      -0.99061062E-04  -0.80016070E-04
  12153.692       0.99960154       0.99214221        1.0090465        1.0015872      -0.71459115E-03  -0.25751015E-03
  12156.119       0.99658756       0.99188795        1.0062376        1.0015380      -0.13438394E-02  -0.12680182E-04
  12158.553       0.99306833       0.99162618        1.0029263        1.0014841      -0.77623713E-03   0.18840167E-03
  12161.002       0.99279727       0.99135632        1.0028665        1.0014256      -0.42389288E-03  -0.14096337E-03
  12163.464       0.99098672       0.99107844        1.0012708        1.0013625      -0.14684659E-02  -0.34694336E-04
  12165.940       0.98554525       0.99079264       0.99604758        1.0012950      -0.59523086E-03   0.26300587E-03
  12168.411       0.98804211       0.99050130       0.99876454        1.0012237      -0.16737588E-03  -0.21275154E-04
  12170.896       0.98471582       0.99020232       0.99566188        1.0011484      -0.70065988E-03   0.99466885E-04
  12173.420       0.98453244       0.98989262       0.99570807        1.0010682       0.33086369E-03   0.18139947E-03
  12175.952       0.98638880       0.98957616       0.99779709        1.0009844       0.21656839E-03  -0.40567894E-04
  12178.472       0.98562659       0.98925561       0.99726883        1.0008978       0.12590658E-03  -0.47568673E-04
  12181.020       0.98702679       0.98892621       0.99890788        1.0008073      -0.24471588E-04   0.44355627E-04
  12183.581       0.98550158       0.98858970       0.99762530        1.0007134       0.35247956E-03   0.57853420E-04
  12186.156       0.98883720       0.98824623        1.0012073        1.0006164       0.27267515E-03  -0.11989349E-03
  12188.732       0.98690621       0.98789769       0.99952535        1.0005168      -0.26512779E-03   0.33870945E-04
  12191.322       0.98746741       0.98754252        1.0003394        1.0004145       0.44766939E-03   0.53066998E-04
  12193.933       0.98923459       0.98717996        1.0023640        1.0003094       0.10878973E-04  -0.18865442E-03
  12196.545       0.98752423       0.98681290        1.0009137        1.0002024      -0.53761604E-03  -0.75052106E-04
  12199.177       0.98641506       0.98643876        1.0000693        1.0000930      -0.38273180E-03   0.44911950E-04
  12201.818       0.98550616       0.98605958       0.99942843       0.99998184      -0.30080431E-03  -0.29990698E-04
  12204.479       0.98482050       0.98567366       0.99901557       0.99986873      -0.54171249E-03  -0.75856494E-04
  12207.140       0.98262274       0.98528404       0.99709338       0.99975468      -0.70457325E-03   0.16476540E-03
  12209.830       0.98105025       0.98488710       0.99580197       0.99963882       0.33996362E-03   0.18302893E-03
  12212.501       0.98444494       0.98448978       0.99947850       0.99952334       0.27646179E-03  -0.16743878E-03
  12215.218       0.98253997       0.98408263       0.99786304       0.99940570      -0.56228023E-03  -0.14915235E-03
  12217.930       0.98139187       0.98367365       0.99700663       0.99928840      -0.53340563E-03   0.26729282E-04
  12220.663       0.97963542       0.98325912       0.99554689       0.99917059      -0.41673127E-03   0.78613019E-04
  12223.398       0.97911348       0.98284228       0.99532458       0.99905338      -0.10360467E-03  -0.20313380E-04
  12226.153       0.97906670       0.98242036       0.99558255       0.99893621      -0.52823751E-03  -0.76684784E-04
  12228.922       0.97619528       0.98199462       0.99302031       0.99881966      -0.52724209E-03   0.11901090E-03
  12231.693       0.97614583       0.98156733       0.99328305       0.99870455       0.13107096E-03   0.40286286E-04
  12234.484       0.97692431       0.98113571       0.99437899       0.99859039      -0.30316574E-03  -0.68744996E-04
  12237.283       0.97445089       0.98070208       0.99222683       0.99847801      -0.25326856E-03   0.24878039E-04
  12240.097       0.97550274       0.98026569       0.99360453       0.99836748      -0.16352779E-03   0.79063223E-04
  12242.925       0.97352833       0.97982683       0.99196063       0.99825913       0.19277452E-03   0.14411767E-03
  12245.754       0.97659332       0.97938781       0.99535927       0.99815376       0.65178912E-03   0.58282431E-04
  12248.611       0.97723454       0.97894488       0.99634043       0.99805077       0.52418008E-03  -0.13807769E-03
  12251.469       0.97958901       0.97850242       0.99903804       0.99795145      -0.13732491E-03  -0.20072691E-03
  12254.349       0.97644666       0.97805769       0.99624445       0.99785547      -0.62745045E-03   0.39246432E-04
  12257.229       0.97597509       0.97761395       0.99612489       0.99776376       0.88722770E-04   0.16999200E-03
  12260.137       0.97696024       0.97716716       0.99746858       0.99767551       0.35656526E-03   0.91084976E-04
  12263.040       0.97804709       0.97672230       0.99891648       0.99759169       0.61801756E-03  -0.75918617E-04
  12265.971       0.98056545       0.97627426        1.0018025       0.99751134      -0.86305990E-04  -0.76578153E-04
  12268.889       0.97754224       0.97582901       0.99914874       0.99743550       0.17007366E-03   0.12291641E-03
  12271.856       0.98156635       0.97537748        1.0035515       0.99736264       0.63706937E-03  -0.73724659E-04
  12274.804       0.98130993       0.97492961        1.0036747       0.99729436      -0.26594134E-03  -0.13793575E-03
  12277.786       0.97998926       0.97447733        1.0027413       0.99722939      -0.18091721E-03   0.76539042E-04
  12280.763       0.98023176       0.97402655        1.0033738       0.99716859       0.19019308E-03  -0.47041264E-04
  12283.761       0.98112576       0.97357324        1.0046639       0.99711136      -0.46201228E-03  -0.12723105E-03
  12286.768       0.97745751       0.97311929        1.0013962       0.99705796      -0.57379119E-03   0.12258219E-03
  12289.789       0.97766724       0.97266365        1.0020118       0.99700821       0.27685184E-03   0.84737373E-04
  12292.825       0.97913435       0.97220625        1.0038902       0.99696210      -0.60553868E-04  -0.20104925E-03
  12295.869       0.97729909       0.97174798        1.0024708       0.99691970      -0.94544716E-03  -0.11631555E-03
  12298.921       0.97337100       0.97128878       0.99896316       0.99688094      -0.76960180E-03   0.11027300E-03
  12301.987       0.97259013       0.97082757       0.99860827       0.99684572      -0.27071978E-03   0.85743374E-04
  12305.075       0.97170480       0.97036329       0.99815543       0.99681392      -0.24187706E-03  -0.26881374E-04
  12308.158       0.97109751       0.96989980       0.99798349       0.99678578      -0.43660474E-03   0.10542657E-04
  12311.276       0.96899754       0.96943104       0.99632739       0.99676089      -0.17650521E-03  -0.99925354E-05
  12314.389       0.96999783       0.96896293       0.99777443       0.99673954      -0.49886123E-03  -0.84013469E-04
  12317.529       0.96587806       0.96849038       0.99410912       0.99672144      -0.70185823E-03   0.85729069E-04
  12320.671       0.96558812       0.96801727       0.99427757       0.99670672       0.39765938E-04  -0.28264809E-06
  12323.822       0.96612830       0.96754253       0.99528104       0.99669526      -0.70363688E-03  -0.37409371E-04
  12326.981       0.96114866       0.96706604       0.99076964       0.99668701      -0.19626101E-03   0.12405987E-03
  12330.174       0.96488157       0.96658370       0.99497973       0.99668186       0.84441062E-04  -0.10488181E-04
  12333.356       0.96168702       0.96610245       0.99226441       0.99667984      -0.26312841E-03   0.20578558E-04
  12336.566       0.96319963       0.96561613       0.99426435       0.99668085       0.21598126E-03  -0.29237255E-04
  12339.778       0.96307407       0.96512866       0.99463023       0.99668482      -0.45089299E-03  -0.12484697E-03
  12342.992       0.96030242       0.96463995       0.99235414       0.99669167      -0.58622293E-03   0.45531822E-04
  12346.234       0.95928977       0.96414586       0.99184531       0.99670140      -0.15696686E-03   0.17870221E-03
  12349.497       0.95928130       0.96364725       0.99234801       0.99671396       0.57628856E-03   0.11862642E-03
  12352.763       0.96305224       0.96314705       0.99663438       0.99672920       0.61752133E-03  -0.48738307E-04
  12356.036       0.96331921       0.96264417       0.99742209       0.99674705       0.25759365E-03  -0.14658970E-03
  12359.325       0.96474267       0.96213741       0.99937275       0.99676749      -0.34445895E-03  -0.89496685E-04
  12362.629       0.96104833       0.96162670       0.99621208       0.99679045      -0.33242220E-03   0.75951490E-04
  12365.941       0.96254334       0.96111291       0.99824622       0.99681579       0.15804371E-03  -0.29475579E-04
  12369.262       0.96209664       0.96059593       0.99834415       0.99684344      -0.52793372E-03  -0.26391522E-04
  12372.604       0.95902555       0.96007354       0.99582545       0.99687344      -0.17810923E-04   0.79629067E-04
  12375.942       0.96197765       0.95954979       0.99933330       0.99690544       0.40203029E-05  -0.77076039E-04
  12379.315       0.95905253       0.95901828       0.99697401       0.99693976      -0.53504510E-03  -0.17883311E-04
  12382.683       0.95837086       0.95848514       0.99686162       0.99697590      -0.11653289E-03  -0.26535850E-04
  12386.073       0.95826498       0.95794604       0.99733300       0.99701405      -0.71437968E-03  -0.27871908E-04
  12389.472       0.95352115       0.95740292       0.99317221       0.99705399      -0.30574691E-03   0.18999710E-03
  12392.879       0.95618410       0.95685569       0.99642400       0.99709559       0.57872156E-03   0.67294207E-04
  12396.315       0.95748140       0.95630093       0.99831950       0.99713903       0.15475408E-03  -0.10853228E-03
  12399.733       0.95724474       0.95574608       0.99868226       0.99718360      -0.16512613E-03  -0.10383884E-03
  12403.186       0.95634682       0.95518230       0.99839440       0.99722989      -0.55872256E-03  -0.31022863E-04
  12406.648       0.95338117       0.95461381       0.99604482       0.99727745      -0.37964923E-03   0.82863850E-04
  12410.118       0.95371497       0.95404042       0.99700073       0.99732617       0.15714512E-04   0.37530804E-04
  12413.611       0.95349059       0.95345975       0.99740698       0.99737614      -0.11831473E-03  -0.47761499E-05
  12417.099       0.95288907       0.95287614       0.99743977       0.99742684      -0.17625881E-04  -0.72256690E-05
  12420.609       0.95336725       0.95228493       0.99856088       0.99747856      -0.16887924E-03  -0.57044581E-04
  12424.135       0.95170090       0.95168703       0.99754495       0.99753108      -0.41896873E-03   0.35298192E-04
  12427.662       0.95041218       0.95108459       0.99691167       0.99758408       0.80085966E-04   0.93399442E-04
  12431.219       0.95226824       0.95047283       0.99943325       0.99763784       0.24268225E-03  -0.38555183E-04
  12434.764       0.95213561       0.94985853       0.99996871       0.99769164      -0.19371752E-03  -0.10638280E-03
  12438.331       0.95089042       0.94923571       0.99940056       0.99774585      -0.51396544E-03  -0.24973374E-04
