# XDI/1.0 Athena/0.9.24
# Element.edge:                  L2
# Element.symbol:                Sc
# Column.1:                      energy eV
# Column.2:                      norm
# Column.3:                      nbkg
# Column.4:                      flat
# Column.5:                      fbkg
# Column.6:                      nder
# Column.7:                      nsec
# Athena.e0:                     402.011
# Athena.eshift:                 0
# Athena.rbkg:                   1.0
# Athena.importance:             1
# Athena.standard:               None
# Athena.bkg_kweight:            2
# Athena.edge_step:              4.5765674
# Athena.fixed_step:             no
# Athena.pre_edge_range:         -5.546 -1.739
# Athena.pre_edge_line:          71.631712 - 0.141365 * E
# Athena.normalization_range:    19.452 39.101
# Athena.post_edge_polynomial:   93.837495 - 0.185218 * E + 0 * E^2 + 0 * E^3
# Athena.spline_range_energy:    0.000 39.553
# Athena.clamps:                 0 24
# Athena.spline_range_k:         0.000 3.222
# Athena.kweight:                2
# Athena.window:                 hanning
# Athena.phase_correction:       no
# Athena.k_range:                1.222 3.000
# Athena.dk:                     1
# Athena.r_range:                1 3
# Athena.dr:                     0.0
# Athena.window:                 hanning
# Athena.plot_multiplier:        0.25
# Athena.y_offset:               0
# ///
#------------------------
#   e         norm        flat        fbkg        nder        nsec
  396.27300       0.17809857E-01   0.17809857E-01    92.557035       0.11153040E-01   -1.3915159
  396.42800       0.19538579E-01   0.19538579E-01    92.561823      -0.20453192      -0.14779172
  396.58300      -0.45595039E-01  -0.45595039E-01    92.566610      -0.34662393E-01   0.94131958
  396.73800       0.87932366E-02   0.87932366E-02    92.571398       0.87277145E-01  -0.41609054
  396.89300      -0.18539124E-01  -0.18539124E-01    92.576186      -0.16365046       0.43200657
  397.04800      -0.41938406E-01  -0.41938406E-01    92.580974       0.22119918        1.2732825
  397.20300       0.50032622E-01   0.50032622E-01    92.585761       0.23106712      -0.89040583
  397.35800       0.29692402E-01   0.29692401E-01    92.590549      -0.54826624E-01   -1.0954839
  397.51400       0.32981542E-01   0.32981542E-01    92.595368      -0.10962836       0.53504714E-01
  397.66900      -0.44020197E-02  -0.44020197E-02    92.600156      -0.38186658E-01   0.50833334E-01
  397.82400       0.21143678E-01   0.21143678E-01    92.604943      -0.93870031E-01  -0.31832063
  397.97900      -0.33501729E-01  -0.33501729E-01    92.609731      -0.13686605       0.21827700
  398.13400      -0.21284798E-01  -0.21284798E-01    92.614519      -0.26204160E-01   0.87310802
  398.28900      -0.41625019E-01  -0.41625019E-01    92.619307       0.13379743       0.89357149
  398.44400       0.20192406E-01   0.20192406E-01    92.624095       0.25080300       -1.1141222
  398.59900       0.36123912E-01   0.36123911E-01    92.628882      -0.21158045      -0.84582339
  398.75400      -0.45397534E-01  -0.45397534E-01    92.633670      -0.11402250E-01    1.6075192
  398.90900       0.32589214E-01   0.32589214E-01    92.638458       0.28675049      -0.43471164
  399.06400       0.43495119E-01   0.43495119E-01    92.643246      -0.14616286       -1.3987817
  399.22000      -0.12867435E-01  -0.12867435E-01    92.648064      -0.14827062       0.55116706
  399.37500      -0.26170430E-02  -0.26170430E-02    92.652852       0.25250097E-01   0.60749233
  399.53000      -0.50399049E-02  -0.50399049E-02    92.657640       0.40052006E-01  -0.27284626
  399.68500       0.97990789E-02   0.97990788E-02    92.662428      -0.59332242E-01  -0.57297714
  399.84000      -0.23432900E-01  -0.23432900E-01    92.667216      -0.13757091       0.56388226
  399.99500      -0.32847902E-01  -0.32847902E-01    92.672003       0.11547126       0.91403495
  400.15000       0.12363190E-01   0.12363190E-01    92.676791       0.14577993       0.22282444
  400.30500       0.12343876E-01   0.12343876E-01    92.681579       0.18454684      -0.30013088
  400.46000       0.69572709E-01   0.69572709E-01    92.686367       0.52739357E-01  -0.69348423
  400.61500       0.28693077E-01   0.28693077E-01    92.691154      -0.30433277E-01    1.1805718
  400.77000       0.60138393E-01   0.60138393E-01    92.695942       0.41871662        1.5323176
  400.92600       0.15891395       0.15891395        92.700761       0.44611749      -0.43566042
  401.08100       0.19888093       0.19888093        92.705549       0.28322623        1.0252205
  401.23600       0.24671408       0.24671408        92.710336       0.76393586        4.2336644
  401.39100       0.43570105       0.43570105        92.715124        1.5956622        7.9921216
  401.54600       0.74136936       0.74136935        92.719912        3.2414935        10.454559
  401.70100        1.4405640        1.4405640        92.724700        4.8365755        7.2690790
  401.85600        2.2407078        2.2407077        92.729488        5.4949080       0.65710473
  402.01100        3.1439855        3.1439855        92.734275        5.0402779       -9.8611184
  402.16600        3.8031939        3.8046791        92.740548        2.4379613       -18.769549
  402.32100        3.8997535        3.9027239        92.746821      -0.77828212       -19.420885
  402.47600        3.5619265        3.5663821        92.753094       -3.5825130       -14.221833
  402.63200        2.7855920        2.7915424        92.759408       -5.2012721       -3.8019829
  402.78700        1.9443308        1.9517664        92.765681       -4.7649297        5.8663188
  402.94200        1.3084638        1.3173846        92.771954       -3.3827133        7.7283702
  403.09700       0.89568970       0.90609573        92.778227       -2.3691350        6.8257038
  403.25200       0.57403195       0.58592318        92.784500       -1.2667451        6.7393025
  403.40700       0.50299871       0.51637515        92.790773      -0.27995118        4.0858727
  403.56200       0.48724708       0.50210873        92.797046      -0.12460503E-03    1.3187569
  403.71700       0.50296008       0.51930694        92.803319       0.12886346      -0.12278081
  403.87200       0.52719476       0.54502682        92.809592      -0.38186658E-01  -0.11823338
  404.02700       0.49112222       0.51043949        92.815865       0.92211115E-01   0.49705979
  404.18200       0.55578020       0.57658268        92.822138       0.11590188      -0.38468446
  404.33800       0.52716770       0.54946497        92.828451      -0.27425753E-01   0.47002820
  404.49300       0.54725079       0.57103326        92.834724       0.26208065       0.86795377
  404.64800       0.60841270       0.63368038        92.840997       0.24163991      -0.52295532E-01
  404.80300       0.62215917       0.64891205        92.847270       0.24586903       0.45701748
  404.95800       0.68463210       0.71287019        92.853543       0.38331533        1.2778300
  405.11300       0.74098692       0.77071022        92.859816       0.64199632        1.3665050
  405.26800       0.88365096       0.91485947        92.866089       0.80693188       0.29330972
  405.42300       0.99113580        1.0238295        92.872362       0.73292233       0.74123233
  405.57800        1.1108569        1.1450358        92.878635        1.0367139        1.7735007
  405.73300        1.3125171        1.3481812        92.884908        1.2827075      -0.29600017
  405.88800        1.5084962        1.5456455        92.891181       0.94495385       -1.7547243
  406.04400        1.6063978        1.6450419        92.897495       0.73698827      -0.84722113
  406.19900        1.7376996        1.7778289        92.903768       0.68146808       0.33703677
  406.35400        1.8176529        1.8592674        92.910041       0.84146967      -0.40472194
  406.50900        1.9985552        2.0416549        92.916313       0.55600427       -2.6670721
  406.66400        1.9900142        2.0345991        92.922586       0.14677304E-01   -2.4783535
  406.81900        2.0031051        2.0491753        92.928859      -0.21228531      -0.57525085
  406.97400        1.9242057        1.9717611        92.935132      -0.16365046       0.18644494
  407.12900        1.9523735        2.0014141        92.941405      -0.15448737      -0.83672852
  407.28400        1.8763147        1.9268404        92.947678      -0.42303630      -0.97542536
  407.43900        1.8212322        1.8732432        92.953951      -0.45686924      -0.13127619
  407.59400        1.7346852        1.7881814        92.960224      -0.46373192       0.59261827E-01
  407.75000        1.6770116        1.7320026        92.966538      -0.43843881       0.37789253
  407.90500        1.5983307        1.6548069        92.972811      -0.34620734      -0.33229925
  408.06000        1.5696873        1.6276487        92.979084      -0.54145157      -0.80489645
  408.21500        1.4304807        1.4899273        92.985357      -0.59572524       0.47975467
  408.37000        1.3850125        1.4459443        92.991630      -0.39272763        1.3596838
  408.52500        1.3087352        1.3711522        92.997903      -0.17422325        1.1027536
  408.68000        1.3310033        1.3949055        93.004176      -0.50874008E-01   0.42063798
  408.83500        1.2929642        1.3583516        93.010449      -0.43825480E-01  -0.59116689E-01
  408.99000        1.3174174        1.3842900        93.016722      -0.69200182E-01   0.72759001E-01
  409.14500        1.2715122        1.3398700        93.022995      -0.21270190E-01  -0.30945971
  409.30000        1.3108236        1.3806667        93.029268      -0.16513269      -0.66364210
  409.45600        1.2201559        1.2914937        93.035581      -0.22766288       0.83653768
  409.61100        1.2400205        1.3128435        93.041854       0.95030526E-01  -0.51200345
  409.76600        1.2496154        1.3239236        93.048127      -0.38638395      -0.67984192
  409.92100        1.1202415        1.1960349        93.054400      -0.11572047        2.2578028
  410.07600        1.2137420        1.2910207        93.060673       0.31353490       0.11141222
  410.23100        1.2174373        1.2962011        93.066946      -0.81182680E-01   -1.0299946
  410.38600        1.1885754        1.2688245        93.073219      -0.57634276E-02   0.37743732
  410.54100        1.2156506        1.2973849        93.079492       0.35822889E-01  -0.47065979
  410.69600        1.1996805        1.2829000        93.085765      -0.15166796       0.47975467
  410.85100        1.1686336        1.2533382        93.092038       0.18454684        1.4233480
  411.00600        1.2568900        1.3430799        93.098311       0.28956991      -0.95575148
  411.16100        1.2584002        1.3460753        93.104584      -0.11173612       -1.0847931
  411.31700        1.2221401        1.3113100        93.110898      -0.47800759E-01   0.24555909
  411.47200        1.2435342        1.3341893        93.117171      -0.35367246E-01  -0.10313618
  411.62700        1.2111762        1.3033165        93.123444      -0.79772974E-01   0.81399133
  411.78200        1.2188046        1.3124301        93.129717       0.21697007       0.56388226
  411.93700        1.2784369        1.3735477        93.135990       0.95030526E-01  -0.35924757
  412.09200        1.2482640        1.3448599        93.142263       0.10560332      -0.16370775
  412.24700        1.3111740        1.4092551        93.148536       0.44281123E-01  -0.81626505
  412.40200        1.2619912        1.3615575        93.154808      -0.14743885       0.32286807
  412.55700        1.2654679        1.3665195        93.161081       0.14437022       0.70712654
  412.71200        1.3067459        1.4092827        93.167354       0.71770383E-01  -0.64030407
  412.86700        1.2877168        1.3917387        93.173627      -0.54124037E-01  -0.92892112
  413.02300        1.2899134        1.3954301        93.179941      -0.21712409       0.16003317
  413.17800        1.2201912        1.3271931        93.186214      -0.43537220E-02    1.6003910
  413.33300        1.2885637        1.3970509        93.192487       0.27899711      -0.51158673
  413.48800        1.3066803        1.4166526        93.198760      -0.16294561      -0.87538173
  413.64300        1.2380506        1.3495081        93.205033       0.76287761E-02   0.96633049
  413.79800        1.3090452        1.4219880        93.211306       0.13661684      -0.67756820
  413.95300        1.2804018        1.3948298        93.217579      -0.20241737      -0.84127595
  414.10800        1.2462958        1.3622090        93.223852      -0.12417870       0.15233916
  414.26300        1.2419064        1.3593048        93.230125      -0.15519223       0.95496189E-01
  414.41800        1.1981862        1.3170698        93.236398      -0.94574884E-01   0.49147419
  414.57300        1.2125882        1.3329570        93.242671      -0.28352288E-02   0.24528217
  414.72900        1.1973045        1.3191681        93.248984      -0.18292130E-01   0.62064594
  414.88400        1.2068993        1.3302481        93.255257       0.19018566      -0.10737655
  415.03900        1.2562620        1.3810960        93.261530      -0.51578861E-01  -0.62754639
  415.19400        1.1909099        1.3172291        93.267803      -0.43537220E-02   0.40472194
  415.34900        1.2549124        1.3827168        93.274076       0.73884942E-01  -0.47293351
  415.50400        1.2138142        1.3431039        93.280349      -0.15096311      -0.32968922
  415.65900        1.2081138        1.3388886        93.286622      -0.28318718E-01   0.19781353
  415.81400        1.2050354        1.3372955        93.292895      -0.89640914E-01  -0.25238279
  415.96900        1.1803251        1.3140704        93.299168      -0.10655738      -0.27284626E-01
  416.12400        1.1720026        1.3072331        93.305441      -0.98099148E-01  -0.17082135
  416.27900        1.1499144        1.2866300        93.311714      -0.15951200       0.24080036
  416.43500        1.1223944        1.2606049        93.318028      -0.23210235E-01   0.41504413
  416.59000        1.1426960        1.2823917        93.324301      -0.30433277E-01  -0.30296755
  416.74500        1.1129601        1.2541409        93.330574      -0.11713017      -0.21145585
  416.90000        1.1063856        1.2490517        93.336847      -0.95984589E-01   0.10459106
  417.05500        1.0832049        1.2273561        93.343120      -0.84706944E-01   0.81853877E-01
  417.21000        1.0801265        1.2257630        93.349393      -0.70609888E-01   0.56842970
  417.36500        1.0613158        1.2084375        93.355666       0.91506262E-01  -0.75032720E-01
  417.52000        1.1084934        1.2571003        93.361939      -0.93870031E-01  -0.93222470
  417.67500        1.0322161        1.1823082        93.368212      -0.19748340       0.40244823
  417.83000        1.0472736        1.1988509        93.374485       0.30888919E-01   0.75028334
  417.98500        1.0417916        1.1948542        93.380758       0.35104438E-01   -1.1679652
  418.14100        1.0581911        1.2127484        93.387071      -0.33234826      -0.24472832
  418.29600       0.93843134        1.0944739        93.393344      -0.41006069E-01    1.5537176
  418.45100        1.0454792        1.2030069        93.399617       0.14930419      -0.59116689
  418.60600       0.98471564        1.1437286        93.405890      -0.22426780      -0.33423666
  418.76100       0.97595615        1.1364543        93.412163       0.45690829E-01   0.70712654
  418.91600       0.99887980        1.1608631        93.418436      -0.50585748E-02  -0.25010907
  419.07100       0.97438799        1.1378565        93.424709      -0.31842982E-01  -0.37971104
  419.22600       0.98900847        1.1539622        93.430982      -0.12276900      -0.32286807
  419.38100       0.93632960        1.1027686        93.437255      -0.13193208       0.29330972
  419.53600       0.94810953        1.1160337        93.443528      -0.31842982E-01   0.34618282
  419.69100       0.92645828        1.0958677        93.449801      -0.24615408E-01   0.42084496
  419.84700       0.94045414        1.1113583        93.456114       0.99039802E-01  -0.27027824
  420.00200       0.95725966        1.1296490        93.462387      -0.10867194      -0.41083394
  420.15700       0.90676583        1.0806404        93.468660      -0.28318718E-01   0.52295532
  420.31200       0.94848086        1.1238406        93.474933       0.53444210E-01   0.36379501E-01
  420.46700       0.92333354        1.1001785        93.481206      -0.17041073E-01  -0.46838607
  420.62200       0.94319812        1.1215283        93.487479      -0.91755472E-01  -0.84354967
  420.77700       0.89488934        1.0747047        93.493752      -0.27854147       0.42291170
  420.93200       0.85685027        1.0381509        93.500025       0.39347153E-01    1.0663741
  421.08700       0.90708696        1.0898728        93.506298       0.52034504E-01  -0.84809711
  421.24200       0.87298096        1.0572520        93.512571      -0.22356295       0.79104943E-01
  421.39700       0.83778245        1.0235387        93.518844       0.76557036E-01   0.84302354
  421.55300       0.89679020        1.0840412        93.525158       0.38617370E-01  -0.85169565
  421.70800       0.84979245        1.0385287        93.531431      -0.18832031       0.11449015E-01
  421.86300       0.83841091        1.0286323        93.537704       0.42166564E-01   0.79352786
  422.01800       0.86286408        1.0545707        93.543977       0.57673327E-01  -0.28194113
  422.17300       0.85628964        1.0494815        93.550250      -0.45235186E-01  -0.38653219
  422.32800       0.84884117        1.0435182        93.556523      -0.62151654E-01   0.59116689E-01
  422.48300       0.83702262        1.0331849        93.562796      -0.26909012E-01  -0.15006544
  422.63800       0.84049938        1.0381468        93.569069      -0.10867194      -0.53205020
  422.79300       0.80333432        1.0024670        93.575342      -0.19184457       0.93222470
  422.94800       0.78102756       0.98164544        93.581615       0.18031772        1.5661317
  423.10300       0.85923282        1.0613359        93.587888       0.29365624      -0.66346720
  423.25900       0.87235465        1.0759525        93.594201      -0.26020581E-01   -1.1372776
  423.41400       0.85114042        1.0562235        93.600474      -0.60037095E-01  -0.51900007
  423.56900       0.85374315        1.0603114        93.606747      -0.18691060      -0.73441117
  423.72400       0.79319813        1.0012516        93.613020      -0.28770456       0.50931301
  423.87900       0.76455474       0.97409344        93.619293      -0.29023571E-01    1.0618267
  424.03400       0.78420082       0.99522473        93.625566       0.41461712E-01   0.87538173
  424.18900       0.77740787       0.98991699        93.631839       0.24234477       0.15916032E-01
  424.34400       0.85932770        1.0733220        93.638112       0.46395681E-01   -1.9099238
  424.49900       0.79179053        1.0072701        93.644385      -0.34973161      -0.51613417
  424.65400       0.75091090       0.96787564        93.650658      -0.11360591        1.1802136
  424.80900       0.75657270       0.97502264        93.656931       0.16134605E-01   0.85544141
  424.96500       0.75592876       0.97587349        93.663244       0.15243637       0.33300891
  425.12000       0.80398041        1.0254103        93.669517       0.11970038      -0.94005478
  425.27500       0.79303588        1.0159510        93.675790      -0.13898061      -0.73895861
  425.43000       0.76089642       0.98529677        93.682063      -0.10937679       0.35470013
  425.58500       0.75912907       0.98501463        93.688336      -0.29023571E-01   0.20236097
  425.74000       0.75189912       0.97926988        93.694609      -0.46644892E-01  -0.40926938E-01
  425.89500       0.74466916       0.97352513        93.700882      -0.41710922E-01   0.55478739
  426.05000       0.73896873       0.96930991        93.707155       0.12533920      -0.34105782E-01
  426.20500       0.78352431        1.0153507        93.713428      -0.52283714E-01  -0.69348423
  426.36000       0.72276078       0.95607237        93.719701      -0.89640914E-01   0.42921377
  426.51500       0.75573563       0.99053242        93.725974       0.80772555E-01  -0.22240675
  426.67100       0.74788104       0.98417263        93.732288      -0.15880941      -0.58874862
  426.82600       0.70634590       0.94412269        93.738561      -0.10232826        1.0689476
  426.98100       0.71615928       0.95542128        93.744834       0.17256434       0.53432392
  427.13600       0.75984084        1.0005880        93.751107       0.63312149E-01  -0.29558344
  427.29100       0.73578605       0.97801846        93.757380       0.80933470E-01  -0.71849514
  427.44600       0.78493022        1.0286478        93.763653      -0.15942134      -0.41609054
  427.60100       0.68636543       0.93156826        93.769926      -0.48054597E-01   0.98679396
  427.75600       0.77003329        1.0167213        93.776199       0.14648478      -0.36606873
  427.91100       0.73177571       0.97994895        93.782472      -0.16153590      -0.68211564E-02
  428.06600       0.71995716       0.96961561        93.788745       0.14437022       0.73857844
  428.22100       0.77653048        1.0276741        93.795018       0.67423413E-01  -0.64728169
  428.37700       0.74092584       0.99356428        93.801331      -0.56934383E-01  -0.44157057
  428.53200       0.75882389        1.0129475        93.807604      -0.69905035E-01  -0.64578000E-01
  428.68700       0.71925528       0.97486414        93.813877      -0.76953563E-01  -0.15688660
  428.84200       0.73496828       0.99206234        93.820150      -0.11853988       0.14551800
  428.99700       0.68250792       0.94108719        93.826423      -0.31842982E-01   0.47520723
  429.15200       0.72509696       0.98516143        93.832696       0.28774361E-01   0.41609054
  429.30700       0.69142797       0.95297765        93.838969       0.97145085E-01   0.40244823
  429.46200       0.75521194        1.0182468        93.845242       0.15353331      -0.69348423
  429.61700       0.73902330        1.0035434        93.851515      -0.11783503      -0.84582339
  429.77200       0.71868308       0.98468838        93.857788      -0.10867194      -0.18430282
  429.92700       0.70533500       0.97282550        93.864061      -0.17496890       0.30416504
  430.08300       0.66426775       0.93325305        93.870374      -0.14076611E-01    1.0880069
  430.23800       0.70095717       0.97142767        93.876647       0.16340125      -0.25512441
  430.39300       0.71492214       0.98687785        93.882920      -0.93165178E-01  -0.58661945
  430.54800       0.67207597       0.94551688        93.889193      -0.18450778E-01   0.80034901
  430.70300       0.70920240       0.98412852        93.895466       0.15494302       0.15916032
  430.85800       0.72010830       0.99651963        93.901739       0.30888919E-01  -0.68666308
  431.01300       0.71877796       0.99667450        93.908012      -0.57922537E-01  -0.25010907
  431.16800       0.70215232       0.98153406        93.914285      -0.46644892E-01  -0.36379501E-01
  431.32300       0.70431805       0.98518499        93.920558      -0.69200182E-01  -0.68211564E-02
  431.47800       0.68070026       0.96305241        93.926831      -0.48759450E-01   0.39765953
  431.63300       0.68920262       0.97303998        93.933104       0.54074271E-01  -0.75986605E-01
  431.78900       0.69751736       0.98284951        93.939418      -0.72391284E-01   0.10676165
  431.94400       0.66668893       0.95350628        93.945691       0.87277145E-01   0.17627535
  432.09900       0.72457327        1.0128758        93.951964      -0.17745926E-01  -0.40699566
  432.25400       0.66118769       0.95097546        93.958237      -0.38891510E-01   0.24328791
  432.40900       0.71251690        1.0037899        93.964510       0.57673327E-01   0.34105782E-01
  432.56400       0.67906642       0.97182460        93.970783      -0.28318718E-01   0.13642313E-01
  432.71900       0.70373810       0.99798149        93.977056       0.61902444E-01   0.27966741
  432.87400       0.69825618       0.99398477        93.983329       0.58378179E-01  -0.55023995
  433.02900       0.72183534        1.0190491        93.989602      -0.10867194      -0.63664126
  433.18400       0.66456788       0.96326689        93.995875      -0.13898061       0.81282157
  433.33900       0.67875135       0.97893556        94.002148       0.14330275       0.77889367
  433.49500       0.70913503        1.0108140        94.008461       0.10325532      -0.85326974
  433.65000       0.71086375        1.0140280        94.014734      -0.12206414      -0.90646077
  433.80500       0.67129515       0.97594456        94.021007      -0.17774752       0.47520723
  433.96000       0.65576202       0.96189665        94.027280       0.25250097E-01   0.84582339
  434.11500       0.67912268       0.98674251        94.033553       0.84457734E-01  -0.15461288
  434.27000       0.68194392       0.99104896        94.039826      -0.22679895E-01  -0.53205020
  434.42500       0.67209191       0.98268215        94.046099      -0.80477827E-01   0.11141222
  434.58000       0.65699579       0.96907124        94.052372       0.11857893E-01   0.64346242
  434.73500       0.67576786       0.98932851        94.058645       0.11899552      -0.27057254
  434.89000       0.69388440        1.0089303        94.064918      -0.72019593E-01  -0.81908709
  435.04500       0.65344178       0.96997285        94.071191      -0.13492148       0.36252322
  435.20100       0.65192383       0.96994969        94.077504       0.40725129E-01   0.92070813
  435.35600       0.66610730       0.98561836        94.083777       0.15141875       0.18882101
  435.51100       0.69886364        1.0198599        94.090050       0.99259643E-01   -1.1345857
  435.66600       0.69687779        1.0193593        94.096323      -0.20030281      -0.71622142
  435.82100       0.63676977       0.96073646        94.102596      -0.12276900        1.0868376
  435.97600       0.65881940       0.98427129        94.108869       0.13661684       0.57752457
  436.13100       0.67912099        1.0060581        94.115142       0.56263621E-01  -0.72986373
  436.28600       0.67626112        1.0046834        94.121415      -0.89640914E-01  -0.19326610
  436.44100       0.65133231       0.98123982        94.127688      -0.36488692E-02   0.47975467
  436.59600       0.67512997        1.0065227        94.133961       0.59083032E-01  -0.46156491
  436.75100       0.66964805        1.0025260        94.140234      -0.14673399      -0.30852390
  436.90600       0.62964243       0.96400557        94.146507      -0.36559377E-01   0.80382416
  437.06200       0.65827808       0.99413600        94.152821       0.10325532      -0.14574970
  437.21700       0.66175484       0.99909796        94.159094      -0.81887533E-01  -0.10838547
  437.37200       0.63289295       0.97172128        94.165367       0.69655825E-01   0.89811892
  437.52700       0.68334814        1.0236617        94.171640       0.19652933      -0.76169580
  437.68200       0.69381704        1.0356158        94.177913      -0.16646987      -0.67302076
  437.83700       0.63174248       0.97502644        94.184186      -0.12107103E-01    1.0800164
  437.99200       0.69006384        1.0348330        94.190459       0.16833522      -0.68211564E-02
  438.14700       0.68392640        1.0301808        94.196732      -0.14221662E-01  -0.78443298
  438.30200       0.68565512        1.0333947        94.203005      -0.74839005E-01  -0.13642313
  438.45700       0.66072631        1.0099511        94.209278      -0.56512831E-01   0.71355291E-01
  438.61200       0.66813614        1.0188461        94.215551      -0.52718864E-01   0.29684841
  438.76800       0.64433074       0.99653552        94.221864       0.35807024E-01   0.31642988
  438.92300       0.67927213        1.0329621        94.228137       0.45690829E-01  -0.36601755
  439.07800       0.65849490        1.0136701        94.234410      -0.77658416E-01   0.17052891
  439.23300       0.65519802        1.0118584        94.240683       0.98554791E-01   0.15688660
  439.38800       0.68904688        1.0471925        94.246956      -0.29023571E-01  -0.70485283E-01
  439.54300       0.64620071        1.0058315        94.253229       0.76704353E-01   0.56160854
  439.69800       0.71282523        1.0739412        94.259502       0.14507508       -1.4119794
  439.85300       0.69117399        1.0537752        94.265775      -0.36100925      -0.53659763
  440.00800       0.60091237       0.96499880        94.272048      -0.21270190E-01    2.0599892
  440.16300       0.68458023        1.0501519        94.278321       0.27758741      -0.26236229
  440.31800       0.68696446        1.0540213        94.284594      -0.10260250       -1.0937057
  440.47400       0.65267085        1.0212225        94.290908      -0.62555074E-01   0.36350703
  440.62900       0.66750983        1.0375467        94.297181       0.10448187E-01   0.26732646
  440.78400       0.65590979        1.0274318        94.303454       0.20316127E-01  -0.47065979
  440.93900       0.67380783        1.0468151        94.309726      -0.13545635      -0.22055072
  441.09400       0.61391832       0.98841078        94.315999      -0.48054597E-01    1.0027100
  441.24900       0.65891091        1.0348886        94.322272       0.17538375      -0.25010907
  441.40400       0.66828728        1.0457502        94.328545      -0.12558841       -1.5711397
  441.55900       0.61997850       0.99892658        94.334818      -0.31166955       -1.2005235
