*********************  Core Excitation Data  ********************
****************  A.P. Hitchcock & D.C. Mancini  ****************
*
* Formula: C6H4SN2
* Name: 2,1,3-benzotrithiadiazole
* Edge: S 2p,2s
* Alpha Formula: C6H4N2S
* Data Source: Hitchcock
* Filename:  bw-0sskk.os
* Ref. Code: HD&91
* Write Date: 93/06/10
* Reference: J. El. Spec. 57 (91) 165.
* Source and Purity: Aldrich
* Acquisition Mode: EELS, 2 deg, 2500 eV CRE mode, 0.7 eV fwhm
*--------------------------------------------------------------
* No. of Spectra: 2    name1- 0bws      name2- 0bws.os
*   E (eV)        Raw data             Osc. Str. per atom (E-2)
*--------------------------------------------------------------
  1.542982E+02,  1.236504E+05, -4.032327E-02,
  1.545609E+02,  1.234900E+05,  1.168468E-02,
  1.548236E+02,  1.223808E+05,  9.700513E-03,
  1.550862E+02,  1.215576E+05, -6.015940E-03,
  1.553489E+02,  1.206105E+05,  3.960241E-03,
  1.556116E+02,  1.194977E+05, -1.364847E-02,
  1.558742E+02,  1.192801E+05, -1.865775E-02,
  1.561369E+02,  1.189932E+05,  1.867825E-02,
  1.563996E+02,  1.180517E+05,  1.283816E-02,
  1.566622E+02,  1.169444E+05,  6.728642E-03,
  1.569249E+02,  1.161014E+05, -1.036073E-02,
  1.571875E+02,  1.155584E+05,  1.365668E-03,
  1.574502E+02,  1.149645E+05,  1.074280E-03,
  1.577129E+02,  1.142829E+05,  1.092538E-02,
  1.579755E+02,  1.133770E+05,  1.411988E-03,
  1.582382E+02,  1.127164E+05, -2.180733E-04,
  1.585009E+02,  1.120921E+05,  5.886701E-03,
  1.587635E+02,  1.112717E+05,  3.260410E-03,
  1.590262E+02,  1.105658E+05, -2.804527E-03,
  1.592888E+02,  1.098999E+05,  5.948521E-03,
  1.595515E+02,  1.089301E+05, -7.376448E-03,
  1.598142E+02,  1.083095E+05, -9.768311E-03,
  1.600768E+02,  1.077232E+05,  1.696601E-05,
  1.603395E+02,  1.069328E+05, -1.169717E-02,
  1.606022E+02,  1.066284E+05,  4.228841E-04,
  1.608648E+02,  1.060178E+05,  1.102291E-02,
  1.611275E+02,  1.050292E+05, -9.916581E-03,
  1.613902E+02,  1.047154E+05,  3.778776E-03,
  1.616528E+02,  1.040623E+05,  6.955633E-03,
  1.619155E+02,  1.031902E+05, -4.426224E-03,
  1.621781E+02,  1.026475E+05, -1.770583E-03,
  1.624408E+02,  1.020574E+05,  1.529915E-03,
  1.627035E+02,  1.013320E+05, -5.508730E-03,
  1.629661E+02,  1.009322E+05,  4.104913E-03,
  1.632288E+02,  1.002702E+05,  6.834120E-04,
  1.634915E+02,  9.989554E+04,  6.058115E-03,
  1.637541E+02,  9.991160E+04,  2.524881E-02,
  1.640168E+02,  1.002928E+05,  5.456202E-02,
  1.642794E+02,  1.015238E+05,  1.101972E-01,
  1.645421E+02,  1.038397E+05,  2.140170E-01,
  1.648048E+02,  1.047946E+05,  2.752625E-01,
  1.650674E+02,  1.035906E+05,  2.547106E-01,
  1.653301E+02,  1.026030E+05,  2.298230E-01,
  1.655928E+02,  1.056110E+05,  3.448873E-01,
  1.658554E+02,  1.118372E+05,  5.786719E-01,
  1.661181E+02,  1.180462E+05,  8.151307E-01,
  1.663807E+02,  1.226402E+05,  9.957331E-01,
  1.666434E+02,  1.259159E+05,  1.128920E+00,
  1.669061E+02,  1.309145E+05,  1.322618E+00,
  1.671687E+02,  1.396066E+05,  1.645728E+00,
  1.674314E+02,  1.505081E+05,  2.047469E+00,
  1.676941E+02,  1.579421E+05,  2.326688E+00,
  1.679567E+02,  1.532242E+05,  2.170674E+00,
  1.682194E+02,  1.444226E+05,  1.879263E+00,
  1.684820E+02,  1.397138E+05,  1.745384E+00,
  1.687447E+02,  1.382877E+05,  1.724958E+00,
  1.690074E+02,  1.323108E+05,  1.520774E+00,
  1.692700E+02,  1.236436E+05,  1.227555E+00,
  1.695327E+02,  1.198948E+05,  1.137364E+00,
  1.697953E+02,  1.190362E+05,  1.137922E+00,
  1.700580E+02,  1.167466E+05,  1.067043E+00,
  1.703207E+02,  1.140696E+05,  9.907337E-01,
  1.705833E+02,  1.132500E+05,  9.934601E-01,
  1.708460E+02,  1.142724E+05,  1.060188E+00,
  1.711087E+02,  1.154892E+05,  1.122154E+00,
  1.713713E+02,  1.172174E+05,  1.208135E+00,
  1.716340E+02,  1.191801E+05,  1.299055E+00,
  1.718967E+02,  1.221534E+05,  1.435622E+00,
  1.721593E+02,  1.255924E+05,  1.581416E+00,
  1.724220E+02,  1.298128E+05,  1.762369E+00,
  1.726846E+02,  1.339666E+05,  1.929157E+00,
  1.729473E+02,  1.390117E+05,  2.146045E+00,
  1.732100E+02,  1.441623E+05,  2.350284E+00,
  1.734726E+02,  1.486569E+05,  2.526669E+00,
  1.737353E+02,  1.526538E+05,  2.689588E+00,
  1.739980E+02,  1.561354E+05,  2.831639E+00,
  1.742606E+02,  1.591055E+05,  2.956312E+00,
  1.745233E+02,  1.611145E+05,  3.036498E+00,
  1.747859E+02,  1.628731E+05,  3.126689E+00,
  1.750486E+02,  1.638583E+05,  3.166217E+00,
  1.753113E+02,  1.643881E+05,  3.209105E+00,
  1.755739E+02,  1.640497E+05,  3.196749E+00,
  1.758366E+02,  1.636067E+05,  3.214656E+00,
  1.760993E+02,  1.630652E+05,  3.204706E+00,
  1.763619E+02,  1.622659E+05,  3.198307E+00,
  1.766246E+02,  1.615056E+05,  3.191464E+00,
  1.768873E+02,  1.602248E+05,  3.148800E+00,
  1.771499E+02,  1.582069E+05,  3.084596E+00,
  1.774126E+02,  1.563528E+05,  3.051272E+00,
  1.776752E+02,  1.553240E+05,  3.049218E+00,
  1.779379E+02,  1.543776E+05,  3.021542E+00,
  1.782006E+02,  1.531263E+05,  2.996676E+00,
  1.784632E+02,  1.519423E+05,  2.973631E+00,
  1.787259E+02,  1.507216E+05,  2.944926E+00,
  1.789886E+02,  1.497782E+05,  2.946543E+00,
  1.792512E+02,  1.491576E+05,  2.936872E+00,
  1.795139E+02,  1.481877E+05,  2.910431E+00,
  1.797765E+02,  1.474177E+05,  2.926618E+00,
  1.800392E+02,  1.474169E+05,  2.952652E+00,
  1.803019E+02,  1.469124E+05,  2.911881E+00,
  1.805645E+02,  1.461944E+05,  2.961583E+00,
  1.808272E+02,  1.466341E+05,  2.974791E+00,
  1.810899E+02,  1.463583E+05,  2.976372E+00,
  1.813525E+02,  1.461257E+05,  3.006034E+00,
  1.816152E+02,  1.462682E+05,  3.021802E+00,
  1.818778E+02,  1.461235E+05,  3.032142E+00,
  1.821405E+02,  1.458080E+05,  3.032489E+00,
  1.824032E+02,  1.455708E+05,  3.068802E+00,
  1.826658E+02,  1.456957E+05,  3.060570E+00,
  1.829285E+02,  1.452186E+05,  3.088279E+00,
  1.831912E+02,  1.452995E+05,  3.094999E+00,
  1.834538E+02,  1.449660E+05,  3.100163E+00,
  1.837165E+02,  1.448194E+05,  3.144338E+00,
  1.839791E+02,  1.452282E+05,  3.145646E+00,
  1.842418E+02,  1.447783E+05,  3.148463E+00,
  1.845045E+02,  1.445303E+05,  3.188348E+00,
  1.847672E+02,  1.449925E+05,  3.213967E+00,
  1.850298E+02,  1.450578E+05,  3.214906E+00,
  1.852925E+02,  1.446526E+05,  3.230993E+00,
  1.855552E+02,  1.445443E+05,  3.237265E+00,
  1.858179E+02,  1.443113E+05,  3.273657E+00,
  1.860805E+02,  1.447061E+05,  3.294914E+00,
  1.863432E+02,  1.447423E+05,  3.307769E+00,
  1.866059E+02,  1.446003E+05,  3.326384E+00,
  1.868686E+02,  1.446187E+05,  3.361276E+00,
  1.871313E+02,  1.450061E+05,  3.389503E+00,
  1.873939E+02,  1.452265E+05,  3.408269E+00,
  1.876566E+02,  1.452270E+05,  3.433170E+00,
  1.879193E+02,  1.453648E+05,  3.433178E+00,
  1.881820E+02,  1.449007E+05,  3.442451E+00,
  1.884446E+02,  1.446658E+05,  3.446332E+00,
  1.887073E+02,  1.443012E+05,  3.450228E+00,
  1.889700E+02,  1.439380E+05,  3.465262E+00,
  1.892327E+02,  1.438404E+05,  3.461531E+00,
  1.894953E+02,  1.433152E+05,  3.467016E+00,
  1.897580E+02,  1.429836E+05,  3.469198E+00,
  1.900207E+02,  1.425921E+05,  3.481442E+00,
  1.902834E+02,  1.424212E+05,  3.472051E+00,
  1.905461E+02,  1.417974E+05,  3.446420E+00,
  1.908087E+02,  1.407759E+05,  3.457570E+00,
  1.910714E+02,  1.404980E+05,  3.469437E+00,
  1.913341E+02,  1.403435E+05,  3.445948E+00,
  1.915968E+02,  1.394654E+05,  3.407609E+00,
  1.918595E+02,  1.381673E+05,  3.415712E+00,
  1.921221E+02,  1.377419E+05,  3.457698E+00,
  1.923848E+02,  1.381707E+05,  3.433703E+00,
  1.926475E+02,  1.374788E+05,  3.434587E+00,
  1.929102E+02,  1.369521E+05,  3.430907E+00,
  1.931728E+02,  1.364664E+05,  3.420594E+00,
  1.934355E+02,  1.358383E+05,  3.393726E+00,
  1.936982E+02,  1.348803E+05,  3.404225E+00,
  1.939609E+02,  1.344864E+05,  3.391764E+00,
  1.942236E+02,  1.339266E+05,  3.381833E+00,
  1.944862E+02,  1.332657E+05,  3.369536E+00,
  1.947489E+02,  1.325853E+05,  3.379684E+00,
  1.950116E+02,  1.322564E+05,  3.352971E+00,
  1.952743E+02,  1.315042E+05,  3.328115E+00,
  1.955369E+02,  1.305075E+05,  3.353973E+00,
  1.957996E+02,  1.303049E+05,  3.355697E+00,
  1.960623E+02,  1.301510E+05,  3.350820E+00,
  1.963250E+02,  1.297003E+05,  3.350256E+00,
  1.965876E+02,  1.292568E+05,  3.372327E+00,
  1.968503E+02,  1.291709E+05,  3.355348E+00,
  1.971130E+02,  1.287581E+05,  3.362686E+00,
  1.973757E+02,  1.283045E+05,  3.367626E+00,
  1.976384E+02,  1.280577E+05,  3.367207E+00,
  1.979010E+02,  1.277199E+05,  3.396168E+00,
  1.981637E+02,  1.276949E+05,  3.373639E+00,
  1.984264E+02,  1.273539E+05,  3.341542E+00,
  1.986891E+02,  1.263462E+05,  3.366638E+00,
  1.989518E+02,  1.258964E+05,  3.388029E+00,
  1.992144E+02,  1.260540E+05,  3.383563E+00,
  1.994771E+02,  1.258863E+05,  3.346469E+00,
  1.997398E+02,  1.250671E+05,  3.368620E+00,
  2.000025E+02,  1.244675E+05,  3.365009E+00,
  2.002651E+02,  1.243450E+05,  3.374964E+00,
  2.005278E+02,  1.240299E+05,  3.361974E+00,
  2.007905E+02,  1.236751E+05,  3.350169E+00,
  2.010532E+02,  1.230313E+05,  3.340671E+00,
  2.013159E+02,  1.224265E+05,  3.352810E+00,
  2.015785E+02,  1.220401E+05,  3.338104E+00,
  2.018412E+02,  1.217357E+05,  3.305725E+00,
  2.021039E+02,  1.209123E+05,  3.318446E+00,
  2.023666E+02,  1.201819E+05,  3.339831E+00,
  2.026292E+02,  1.201798E+05,  3.313534E+00,
  2.028919E+02,  1.199711E+05,  3.313001E+00,
  2.031546E+02,  1.192142E+05,  3.310648E+00,
  2.034173E+02,  1.188460E+05,  3.288974E+00,
  2.036799E+02,  1.183315E+05,  3.266976E+00,
  2.039426E+02,  1.175095E+05,  3.249755E+00,
  2.042053E+02,  1.167125E+05,  3.268798E+00,
  2.044680E+02,  1.161903E+05,  3.274936E+00,
  2.047307E+02,  1.162094E+05,  3.224787E+00,
  2.049933E+02,  1.157426E+05,  3.208539E+00,
  2.052560E+02,  1.144644E+05,  3.210242E+00,
  2.055187E+02,  1.138561E+05,  3.193757E+00,
  2.057814E+02,  1.134956E+05,  3.198973E+00,
  2.060441E+02,  1.128905E+05,  3.171349E+00,
  2.063067E+02,  1.125706E+05,  3.183501E+00,
  2.065694E+02,  1.117722E+05,  3.180732E+00,
  2.068321E+02,  1.116745E+05,  3.160827E+00,
  2.070948E+02,  1.112532E+05,  3.159487E+00,
  2.073574E+02,  1.105488E+05,  3.137622E+00,
  2.076201E+02,  1.101648E+05,  3.129382E+00,
  2.078828E+02,  1.094049E+05,  3.148925E+00,
  2.081455E+02,  1.089575E+05,  3.144961E+00,
  2.084082E+02,  1.090401E+05,  3.124672E+00,
  2.086708E+02,  1.086322E+05,  3.096433E+00,
  2.089335E+02,  1.078870E+05,  3.101118E+00,
  2.091962E+02,  1.069922E+05,  3.092802E+00,
  2.094589E+02,  1.067886E+05,  3.071266E+00,
  2.097215E+02,  1.063109E+05,  3.065412E+00,
  2.099842E+02,  1.055568E+05,  3.053720E+00,
  2.102469E+02,  1.051290E+05,  3.062476E+00,
  2.105096E+02,  1.045903E+05,  3.057671E+00,
  2.107722E+02,  1.044618E+05,  3.047092E+00,
  2.110349E+02,  1.040843E+05,  3.023430E+00,
  2.112976E+02,  1.035790E+05,  3.024710E+00,
  2.115603E+02,  1.028151E+05,  3.003233E+00,
  2.118230E+02,  1.025046E+05,  2.997179E+00,
  2.120856E+02,  1.018202E+05,  3.019095E+00,
  2.123483E+02,  1.013707E+05,  2.982793E+00,
  2.126110E+02,  1.014676E+05,  2.967478E+00,
  2.128737E+02,  1.006058E+05,  2.957815E+00,
  2.131364E+02,  9.993871E+04,  2.984534E+00,
  2.133990E+02,  9.944023E+04,  2.969717E+00,
  2.136617E+02,  9.957953E+04,  2.967028E+00,
  2.139244E+02,  9.916502E+04,  2.957726E+00,
  2.141871E+02,  9.878303E+04,  2.935768E+00,
  2.144497E+02,  9.834834E+04,  2.945988E+00,
  2.147124E+02,  9.768564E+04,  2.941745E+00,
  2.149751E+02,  9.746363E+04,  2.916546E+00,
  2.152378E+02,  9.718447E+04,  2.905756E+00,
  2.155005E+02,  9.651723E+04,  2.919513E+00,
  2.157631E+02,  9.594786E+04,  2.891855E+00,
  2.160258E+02,  9.581663E+04,  2.899483E+00,
  2.162885E+02,  9.525010E+04,  2.897785E+00,
  2.165512E+02,  9.491395E+04,  2.887609E+00,
  2.168138E+02,  9.468238E+04,  2.892878E+00,
  2.170765E+02,  9.427652E+04,  2.889231E+00,
  2.173392E+02,  9.401359E+04,  2.880877E+00,
  2.176019E+02,  9.375008E+04,  2.883369E+00,
  2.178646E+02,  9.336257E+04,  2.858749E+00,
  2.181272E+02,  9.307230E+04,  2.862176E+00,
  2.183899E+02,  9.254693E+04,  2.848352E+00,
  2.186526E+02,  9.212772E+04,  2.848977E+00,
  2.189153E+02,  9.175040E+04,  2.855221E+00,
  2.191779E+02,  9.138543E+04,  2.865164E+00,
  2.194406E+02,  9.121111E+04,  2.864631E+00,
  2.197033E+02,  9.112788E+04,  2.855877E+00,
  2.199660E+02,  9.097205E+04,  2.824804E+00,
  2.202287E+02,  9.063415E+04,  2.848630E+00,
  2.204913E+02,  8.999920E+04,  2.859962E+00,
  2.207540E+02,  8.966321E+04,  2.849608E+00,
  2.210167E+02,  8.977765E+04,  2.851437E+00,
  2.212794E+02,  8.956620E+04,  2.838147E+00,
  2.215420E+02,  8.922887E+04,  2.839074E+00,
  2.218047E+02,  8.889879E+04,  2.823150E+00,
  2.220674E+02,  8.851714E+04,  2.840219E+00,
  2.223301E+02,  8.816575E+04,  2.854440E+00,
  2.225928E+02,  8.787249E+04,  2.827896E+00,
  2.228554E+02,  8.795088E+04,  2.851308E+00,
  2.231181E+02,  8.770305E+04,  2.851112E+00,
  2.233808E+02,  8.729897E+04,  2.861458E+00,
  2.236435E+02,  8.736580E+04,  2.877364E+00,
  2.239061E+02,  8.719879E+04,  2.880655E+00,
  2.241688E+02,  8.720348E+04,  2.876145E+00,
  2.244315E+02,  8.720742E+04,  2.876003E+00,
  2.246942E+02,  8.699830E+04,  2.863020E+00,
  2.249569E+02,  8.670720E+04,  2.898670E+00,
  2.252195E+02,  8.641177E+04,  2.909442E+00,
  2.254822E+02,  8.617464E+04,  2.901119E+00,
  2.257449E+02,  8.651779E+04,  2.890245E+00,
  2.260076E+02,  8.641522E+04,  2.932654E+00,
  2.262702E+02,  8.602155E+04,  2.942319E+00,
  2.265329E+02,  8.579940E+04,  3.006707E+00,
  2.267956E+02,  8.626513E+04,  3.017120E+00,
  2.270583E+02,  8.641373E+04,  3.057816E+00,
  2.273210E+02,  8.724257E+04,  3.107218E+00,
  2.275836E+02,  8.730598E+04,  3.134056E+00,
  2.278463E+02,  8.787700E+04,  3.127930E+00,
  2.281090E+02,  8.853202E+04,  3.159245E+00,
  2.283717E+02,  8.874181E+04,  3.160622E+00,
  2.286344E+02,  8.847730E+04,  3.133449E+00,
  2.288970E+02,  8.879168E+04,  3.178071E+00,
  2.291597E+02,  8.855250E+04,  3.195791E+00,
  2.294224E+02,  8.791286E+04,  3.221080E+00,
  2.296851E+02,  8.850002E+04,  3.195009E+00,
  2.299477E+02,  8.861672E+04,  3.153550E+00,
  2.302104E+02,  8.883951E+04,  3.098593E+00,
  2.304731E+02,  8.812945E+04,  3.082364E+00,
  2.307358E+02,  8.713972E+04,  3.032140E+00,
  2.309984E+02,  8.590416E+04,  3.006556E+00,
  2.312611E+02,  8.538471E+04,  2.971225E+00,
  2.315238E+02,  8.425635E+04,  2.968130E+00,
  2.317865E+02,  8.355935E+04,  2.973275E+00,
  2.320492E+02,  8.270793E+04,  2.959127E+00,
  2.323118E+02,  8.241045E+04,  2.947965E+00,
  2.325745E+02,  8.228888E+04,  2.935742E+00,
  2.328372E+02,  8.185375E+04,  2.930546E+00,
  2.330999E+02,  8.144046E+04,  2.912815E+00,
  2.333625E+02,  8.101652E+04,  2.930164E+00,
  2.336252E+02,  8.070485E+04,  2.916344E+00,
  2.338879E+02,  8.021152E+04,  2.945444E+00,
  2.341506E+02,  8.023535E+04,  2.950878E+00,
  2.344133E+02,  7.987475E+04,  2.934266E+00,
  2.346759E+02,  8.007229E+04,  2.930376E+00,
  2.349386E+02,  8.005129E+04,  2.929317E+00,
  2.352013E+02,  7.963155E+04,  2.943855E+00,
  2.354640E+02,  7.931755E+04,  2.939258E+00,
  2.357267E+02,  7.909209E+04,  2.949868E+00,
  2.359893E+02,  7.909400E+04,  2.939411E+00,
  2.362520E+02,  7.890177E+04,  2.963313E+00,
  2.365147E+02,  7.882856E+04,  2.993174E+00,
  2.367774E+02,  7.855057E+04,  2.946797E+00,
  2.370400E+02,  7.861244E+04,  2.967726E+00,
  2.373027E+02,  7.892255E+04,  2.983966E+00,
  2.375654E+02,  7.832255E+04,  2.989649E+00,
  2.378281E+02,  7.812127E+04,  2.974401E+00,
  2.380907E+02,  7.824802E+04,  2.974430E+00,
  2.383534E+02,  7.822420E+04,  2.951195E+00,
  2.386161E+02,  7.789796E+04,  2.965882E+00,
  2.388788E+02,  7.761059E+04,  2.954482E+00,
  2.391415E+02,  7.717057E+04,  2.976711E+00,
  2.394041E+02,  7.697933E+04,  2.953706E+00,
  2.396668E+02,  7.678066E+04,  2.958732E+00,
  2.399295E+02,  7.673838E+04,  2.971189E+00,
  2.401922E+02,  7.649413E+04,  2.938236E+00,
  2.404548E+02,  7.618028E+04,  2.957237E+00,
  2.407175E+02,  7.615620E+04,  2.947043E+00,
  2.409802E+02,  7.577169E+04,  2.940959E+00,
  2.412429E+02,  7.548473E+04,  2.938962E+00,
  2.415056E+02,  7.537877E+04,  2.943890E+00,
  2.417682E+02,  7.505716E+04,  2.935885E+00,
  2.420309E+02,  7.480688E+04,  2.950359E+00,
  2.422936E+02,  7.465036E+04,  2.920150E+00,
  2.425563E+02,  7.445649E+04,  2.904026E+00,
  2.428190E+02,  7.431325E+04,  2.906264E+00,
  2.430816E+02,  7.405558E+04,  2.884230E+00,
  2.433443E+02,  7.346143E+04,  2.876390E+00,
  2.436070E+02,  7.313800E+04,  2.908119E+00,
  2.438697E+02,  7.283983E+04,  2.910208E+00,
  2.441323E+02,  7.238231E+04,  2.887460E+00,
  2.443950E+02,  7.232555E+04,  2.851193E+00,
  2.446577E+02,  7.251700E+04,  2.865063E+00,
  2.449204E+02,  7.223682E+04,  2.879805E+00,
  2.451830E+02,  7.160359E+04,  2.868857E+00,
  2.454457E+02,  7.108883E+04,  2.867313E+00,
  2.457084E+02,  7.116124E+04,  2.879054E+00,
  2.459711E+02,  7.111650E+04,  2.877898E+00,
  2.462338E+02,  7.080889E+04,  2.876494E+00,
  2.464964E+02,  7.067674E+04,  2.857434E+00,
  2.467591E+02,  7.065382E+04,  2.861254E+00,
  2.470218E+02,  7.046819E+04,  2.864219E+00,
  2.472845E+02,  7.021175E+04,  2.856378E+00,
  2.475471E+02,  6.981142E+04,  2.860334E+00,
  2.478098E+02,  6.970967E+04,  2.851227E+00,
  2.480725E+02,  6.956211E+04,  2.842792E+00,
  2.483352E+02,  6.930472E+04,  2.838171E+00,
  2.485979E+02,  6.917313E+04,  2.835464E+00,
  2.488605E+02,  6.886252E+04,  2.823021E+00,
  2.491232E+02,  6.857145E+04,  2.813666E+00,
  2.493859E+02,  6.833980E+04,  2.817804E+00,
  2.496486E+02,  6.811756E+04,  2.819329E+00,
  2.499113E+02,  6.775916E+04,  2.849175E+00,
  2.501739E+02,  6.746830E+04,  2.839428E+00,
  2.504366E+02,  6.737712E+04,  2.841762E+00,
  2.506993E+02,  6.727820E+04,  2.800714E+00,
  2.509620E+02,  6.757839E+04,  2.805997E+00,
  2.512246E+02,  6.727136E+04,  2.799816E+00,
  2.514873E+02,  6.713361E+04,  2.794452E+00,
  2.517500E+02,  6.632043E+04,  2.810072E+00,
  2.520127E+02,  6.625339E+04,  2.794310E+00,
  2.522753E+02,  6.600034E+04,  2.792399E+00,
  2.525380E+02,  6.576135E+04,  2.757253E+00,
  2.528007E+02,  6.585825E+04,  2.803941E+00,
  2.530634E+02,  6.546782E+04,  2.781307E+00,
  2.533261E+02,  6.527701E+04,  2.781043E+00,
  2.535887E+02,  6.458895E+04,  2.779027E+00,
  2.538514E+02,  6.510447E+04,  2.765143E+00,
  2.541141E+02,  6.468258E+04,  2.762373E+00,
  2.543768E+02,  6.449671E+04,  2.766099E+00,
  2.546395E+02,  6.432046E+04,  2.773064E+00,
  2.549021E+02,  6.397370E+04,  2.774220E+00,
  2.551648E+02,  6.376011E+04,  2.744106E+00,
  2.554275E+02,  6.365995E+04,  2.762672E+00,
  2.556902E+02,  6.361893E+04,  2.743935E+00,
  2.559529E+02,  6.350911E+04,  2.752171E+00,
  2.562155E+02,  6.297570E+04,  2.725205E+00,
  2.564782E+02,  6.297788E+04,  2.731285E+00,
  2.567409E+02,  6.266044E+04,  2.721729E+00,
  2.570036E+02,  6.255550E+04,  2.702943E+00,
  2.572662E+02,  6.211623E+04,  2.718308E+00,
  2.575289E+02,  6.194407E+04,  2.717475E+00,
  2.577916E+02,  6.171688E+04,  2.706933E+00,
  2.580543E+02,  6.132030E+04,  2.695813E+00,
  2.583170E+02,  6.127233E+04,  2.685094E+00,
  2.585797E+02,  6.119661E+04,  2.706012E+00,
  2.588423E+02,  6.094026E+04,  2.699880E+00,
  2.591050E+02,  6.063156E+04,  2.669712E+00,
  2.593676E+02,  6.032521E+04,  2.692485E+00,
  2.596304E+02,  6.034645E+04,  2.676084E+00,
  2.598930E+02,  6.026659E+04,  2.672026E+00,
  2.601557E+02,  5.979943E+04,  2.673858E+00,
  2.604184E+02,  5.970491E+04,  2.666458E+00,
  2.606811E+02,  5.955699E+04,  2.680832E+00,
  2.609437E+02,  5.928266E+04,  2.659163E+00,
  2.612064E+02,  5.914030E+04,  2.636161E+00,
  2.614691E+02,  5.895557E+04,  2.625261E+00,
  2.617318E+02,  5.889667E+04,  2.625947E+00,
  2.619944E+02,  5.868555E+04,  2.631398E+00,
  2.622571E+02,  5.820966E+04,  2.622685E+00,
  2.625198E+02,  5.782216E+04,  2.612849E+00,
  2.627825E+02,  5.761566E+04,  2.605129E+00,
  2.630451E+02,  5.753404E+04,  2.606831E+00,
  2.633079E+02,  5.738547E+04,  2.600162E+00,
  2.635705E+02,  5.711656E+04,  2.580836E+00,
  2.638332E+02,  5.685397E+04,  2.595492E+00,
  2.640959E+02,  5.667359E+04,  2.569308E+00,
  2.643586E+02,  5.651897E+04,  2.593113E+00,
  2.646212E+02,  5.621170E+04,  2.562960E+00,
  2.648839E+02,  5.600255E+04,  2.551203E+00,
  2.651466E+02,  5.585768E+04,  2.563076E+00,
  2.654093E+02,  5.562513E+04,  2.539332E+00,
  2.656719E+02,  5.556229E+04,  2.525586E+00,
  2.659346E+02,  5.508239E+04,  2.546865E+00,
  2.661973E+02,  5.490534E+04,  2.545045E+00,
  2.664600E+02,  5.478579E+04,  2.553548E+00,
  2.667226E+02,  5.435531E+04,  2.541016E+00,
  2.669854E+02,  5.418925E+04,  2.537906E+00,
  2.672480E+02,  5.428762E+04,  2.551852E+00,
  2.675107E+02,  5.418416E+04,  2.548638E+00,
  2.677733E+02,  5.410804E+04,  2.541720E+00,
  2.680360E+02,  5.383782E+04,  2.515968E+00,
  2.682987E+02,  5.373495E+04,  2.489863E+00,
  2.685614E+02,  5.376607E+04,  2.504928E+00,
  2.688241E+02,  5.358858E+04,  2.509942E+00,
  2.690868E+02,  5.331109E+04,  2.488858E+00,
  2.693494E+02,  5.281145E+04,  2.474007E+00,
  2.696121E+02,  5.241883E+04,  2.465523E+00,
  2.698748E+02,  5.250187E+04,  2.482152E+00,
  2.701375E+02,  5.240123E+04,  2.475509E+00,
  2.704001E+02,  5.198890E+04,  2.479753E+00,
  2.706628E+02,  5.166858E+04,  2.452923E+00,
  2.709255E+02,  5.147427E+04,  2.439971E+00,
  2.711882E+02,  5.157005E+04,  2.451097E+00,
  2.714508E+02,  5.137495E+04,  2.457195E+00,
  2.717135E+02,  5.128853E+04,  2.440685E+00,
  2.719762E+02,  5.079823E+04,  2.436514E+00,
  2.722389E+02,  5.051774E+04,  2.418715E+00,
  2.725016E+02,  5.056668E+04,  2.398284E+00,
  2.727643E+02,  5.053541E+04,  2.414218E+00,
  2.730269E+02,  5.018875E+04,  2.416502E+00,
  2.732896E+02,  5.001791E+04,  2.408576E+00,
  2.735522E+02,  4.965118E+04,  2.382594E+00,
  2.738150E+02,  4.924751E+04,  2.363558E+00,
  2.740776E+02,  4.936046E+04,  2.381866E+00,
  2.743403E+02,  4.929260E+04,  2.382117E+00,
  2.746030E+02,  4.907801E+04,  2.393434E+00,
  2.748657E+02,  4.861229E+04,  2.382405E+00,
  2.751283E+02,  4.822610E+04,  2.360255E+00,
  2.753910E+02,  4.834009E+04,  2.383097E+00,
  2.756537E+02,  4.826337E+04,  2.372114E+00,
  2.759164E+02,  4.830393E+04,  2.356307E+00,
  2.761790E+02,  4.808010E+04,  2.360661E+00,
  2.764417E+02,  4.768090E+04,  2.352668E+00,
  2.767044E+02,  4.781061E+04,  2.355129E+00,
  2.769671E+02,  4.762680E+04,  2.356477E+00,
  2.772297E+02,  4.731106E+04,  2.326721E+00,
  2.774925E+02,  4.721859E+04,  2.320624E+00,
  2.777551E+02,  4.703759E+04,  2.302999E+00,
  2.780178E+02,  4.694038E+04,  2.315354E+00,
  2.782805E+02,  4.686186E+04,  2.318878E+00,
  2.785432E+02,  4.644298E+04,  2.326438E+00,
  2.788058E+02,  4.617540E+04,  2.318851E+00,
  2.790685E+02,  4.586954E+04,  2.300854E+00,
  2.793312E+02,  4.583068E+04,  2.281279E+00,
  2.795939E+02,  4.581654E+04,  2.285421E+00,
  2.798565E+02,  4.580741E+04,  2.304558E+00,
  2.801192E+02,  4.566809E+04,  2.293642E+00,
  2.803819E+02,  4.536518E+04,  2.285149E+00,
  2.806446E+02,  4.500183E+04,  2.277792E+00,
  2.809072E+02,  4.484896E+04,  2.286321E+00,
  2.811700E+02,  4.494457E+04,  2.285537E+00,
  2.814326E+02,  4.485110E+04,  2.287053E+00,
  2.816953E+02,  4.462435E+04,  2.301884E+00,
  2.819579E+02,  4.442072E+04,  2.303448E+00,
  2.822206E+02,  4.435420E+04,  2.329254E+00,
  2.824833E+02,  4.430266E+04,  2.366324E+00,
  2.827460E+02,  4.421534E+04,  2.475416E+00,
  2.830087E+02,  4.424392E+04,  2.789097E+00,
  2.832714E+02,  4.425488E+04,  3.262608E+00,
  2.835340E+02,  4.435913E+04,  4.103917E+00,
  2.837967E+02,  4.469961E+04,  5.418780E+00,
  2.840594E+02,  4.561239E+04,  7.100564E+00,
  2.843221E+02,  4.839159E+04,  8.283109E+00,
  2.845847E+02,  5.363061E+04,  8.122389E+00,
  2.848474E+02,  6.234120E+04,  6.862873E+00,
  2.851101E+02,  7.663356E+04,  5.748001E+00,
  2.853728E+02,  9.661788E+04,  5.397267E+00,
  2.856354E+02,  1.164007E+05,  5.818110E+00,
  2.858981E+02,  1.246496E+05,  6.802006E+00,
  2.861608E+02,  1.162291E+05,  8.046181E+00,
  2.864235E+02,  9.974848E+04,  8.965544E+00,
  2.866862E+02,  8.843164E+04,  9.415560E+00,
  2.869489E+02,  8.737452E+04,  9.843687E+00,
  2.872115E+02,  9.559819E+04,  9.507336E+00,
  2.874742E+02,  1.098915E+05,  8.090651E+00,
  2.877368E+02,  1.250017E+05,  6.738438E+00,
  2.879996E+02,  1.351480E+05,  8.127781E+00,