*********************  Core Excitation Data  ********************
****************  A.P. Hitchcock & D.C. Mancini  ****************
*
* Formula: C6H4S3N2
* Name: 1,3,5,2,4-benzotrithiadiazepine
* Edge: C 1s
* Alpha Formula: C6H4N2S3
* Data Source: Hitchcock
* Filename:  bv-0cckk.os
* Ref. Code: HD&91
* Write Date: 93/06/10
* Reference: J. El. Spec. 57 (91) 165.
* Source and Purity: Oakley, U. Guelph
* Acquisition Mode: EELS, 2 deg, 2500 eV CRE mode, 0.7 eV fwhm
*--------------------------------------------------------------
* No. of Spectra: 2    name1- 0bvc     name2- 0bvc.os
*   E (eV)        Raw data             Osc. Str. per atom (E-2)
*--------------------------------------------------------------
  2.738499E+02,  2.692578E+04,  2.235585E-03,
  2.740200E+02,  2.692100E+04,  5.190525E-03,
  2.741980E+02,  2.714000E+04,  1.856043E-02,
  2.743760E+02,  2.674800E+04,  4.301244E-03,
  2.745540E+02,  2.651400E+04, -4.001196E-03,
  2.747320E+02,  2.672100E+04,  8.367677E-03,
  2.749100E+02,  2.636300E+04, -4.487050E-03,
  2.750880E+02,  2.625700E+04, -6.835230E-03,
  2.752650E+02,  2.615400E+04, -8.537334E-03,
  2.754430E+02,  2.621500E+04, -2.699531E-03,
  2.756210E+02,  2.601600E+04, -8.569956E-03,
  2.757990E+02,  2.621900E+04,  3.701354E-03,
  2.759770E+02,  2.609500E+04,  1.617844E-03,
  2.761550E+02,  2.621000E+04,  1.000701E-02,
  2.763330E+02,  2.603200E+04,  5.195559E-03,
  2.765110E+02,  2.603000E+04,  7.977229E-03,
  2.766890E+02,  2.579200E+04, -1.300248E-05,
  2.768670E+02,  2.572900E+04, -2.557165E-04,
  2.770450E+02,  2.562100E+04, -2.267452E-03,
  2.772230E+02,  2.559100E+04, -6.749119E-04,
  2.774000E+02,  2.544900E+04, -4.228118E-03,
  2.775780E+02,  2.549700E+04,  9.490353E-04,
  2.777560E+02,  2.519900E+04, -9.921041E-03,
  2.779340E+02,  2.534900E+04, -2.533219E-04,
  2.781120E+02,  2.514800E+04, -6.313474E-03,
  2.782900E+02,  2.549600E+04,  1.312028E-02,
  2.784680E+02,  2.529000E+04,  7.236727E-03,
  2.786460E+02,  2.524900E+04,  8.047177E-03,
  2.788240E+02,  2.520200E+04,  8.879914E-03,
  2.790020E+02,  2.513900E+04,  8.926278E-03,
  2.791800E+02,  2.452600E+04, -1.772652E-02,
  2.793580E+02,  2.478800E+04, -3.126634E-03,
  2.795350E+02,  2.478100E+04,  2.509594E-04,
  2.797130E+02,  2.461100E+04, -4.818653E-03,
  2.798910E+02,  2.493000E+04,  1.346322E-02,
  2.800690E+02,  2.458800E+04,  6.867696E-04,
  2.802470E+02,  2.452000E+04, -2.644669E-04,
  2.804250E+02,  2.469400E+04,  1.127285E-02,
  2.806030E+02,  2.435200E+04, -1.952190E-03,
  2.807810E+02,  2.415400E+04, -9.294796E-03,
  2.809590E+02,  2.418900E+04, -4.879481E-03,
  2.811370E+02,  2.425900E+04,  1.778672E-03,
  2.813150E+02,  2.403400E+04, -6.094912E-03,
  2.814930E+02,  2.401100E+04, -4.595911E-03,
  2.816700E+02,  2.398500E+04, -2.815617E-03,
  2.818480E+02,  2.412800E+04,  7.370188E-03,
  2.820260E+02,  2.397700E+04,  3.336275E-03,
  2.822040E+02,  2.385200E+04, -1.516391E-04,
  2.823820E+02,  2.362900E+04, -8.494943E-03,
  2.825600E+02,  2.392700E+04,  9.025045E-03,
  2.827380E+02,  2.378100E+04,  5.506187E-03,
  2.829160E+02,  2.341000E+04, -1.038662E-02,
  2.830940E+02,  2.355600E+04, -7.537672E-04,
  2.832720E+02,  2.403000E+04,  2.664278E-02,
  2.834500E+02,  2.379500E+04,  1.890608E-02,
  2.836280E+02,  2.408900E+04,  3.646482E-02,
  2.838050E+02,  2.483600E+04,  7.811776E-02,
  2.839830E+02,  2.582900E+04,  1.336640E-01,
  2.841610E+02,  2.894600E+04,  2.981433E-01,
  2.843390E+02,  3.374500E+04,  5.542684E-01,
  2.845170E+02,  3.925500E+04,  8.518222E-01,
  2.846950E+02,  4.568000E+04,  1.199188E+00,
  2.848730E+02,  5.138100E+04,  1.512697E+00,
  2.850510E+02,  5.330200E+04,  1.630876E+00,
  2.852290E+02,  5.301700E+04,  1.626765E+00,
  2.854070E+02,  5.148800E+04,  1.553038E+00,
  2.855850E+02,  5.020700E+04,  1.489030E+00,
  2.857630E+02,  4.870200E+04,  1.413663E+00,
  2.859400E+02,  4.668100E+04,  1.311192E+00,
  2.861180E+02,  4.427900E+04,  1.186833E+00,
  2.862960E+02,  4.146500E+04,  1.039576E+00,
  2.864740E+02,  3.797200E+04,  8.552082E-01,
  2.866520E+02,  3.582400E+04,  7.388316E-01,
  2.868300E+02,  3.511700E+04,  7.009129E-01,
  2.870080E+02,  3.561100E+04,  7.295149E-01,
  2.871860E+02,  3.621000E+04,  7.666318E-01,
  2.873640E+02,  3.711300E+04,  8.202059E-01,
  2.875420E+02,  3.742300E+04,  8.432971E-01,
  2.877200E+02,  3.730800E+04,  8.424722E-01,
  2.878980E+02,  3.662300E+04,  8.103186E-01,
  2.880760E+02,  3.687700E+04,  8.267961E-01,
  2.882530E+02,  3.639000E+04,  8.060211E-01,
  2.884310E+02,  3.702000E+04,  8.428219E-01,
  2.886090E+02,  3.652100E+04,  8.223586E-01,
  2.887870E+02,  3.712800E+04,  8.580755E-01,
  2.889650E+02,  3.726600E+04,  8.715444E-01,
  2.891430E+02,  3.793100E+04,  9.122111E-01,
  2.893210E+02,  3.781900E+04,  9.124776E-01,
  2.894990E+02,  3.799500E+04,  9.263805E-01,
  2.896770E+02,  3.762600E+04,  9.115316E-01,
  2.898550E+02,  3.754200E+04,  9.107341E-01,
  2.900330E+02,  3.726100E+04,  8.998786E-01,
  2.902110E+02,  3.741700E+04,  9.123330E-01,
  2.903880E+02,  3.728300E+04,  9.100300E-01,
  2.905660E+02,  3.767100E+04,  9.354421E-01,
  2.907440E+02,  3.779400E+04,  9.478485E-01,
  2.909220E+02,  3.760200E+04,  9.423547E-01,
  2.911000E+02,  3.777900E+04,  9.562312E-01,
  2.912780E+02,  3.765600E+04,  9.546003E-01,
  2.914560E+02,  3.762500E+04,  9.572700E-01,
  2.916340E+02,  3.839000E+04,  1.004125E+00,
  2.918120E+02,  3.839000E+04,  1.010797E+00,
  2.919900E+02,  3.829400E+04,  1.010263E+00,
  2.921680E+02,  3.868800E+04,  1.036680E+00,
  2.923460E+02,  3.891500E+04,  1.055085E+00,
  2.925230E+02,  3.897100E+04,  1.063552E+00,
  2.927010E+02,  3.918400E+04,  1.080418E+00,
  2.928790E+02,  4.008100E+04,  1.135929E+00,
  2.930570E+02,  4.016500E+04,  1.147986E+00,
  2.932350E+02,  4.096500E+04,  1.198005E+00,
  2.934130E+02,  4.130800E+04,  1.224422E+00,
  2.935910E+02,  4.175000E+04,  1.255317E+00,
  2.937690E+02,  4.193400E+04,  1.272011E+00,
  2.939470E+02,  4.242200E+04,  1.305299E+00,
  2.941250E+02,  4.233500E+04,  1.306865E+00,
  2.943030E+02,  4.222900E+04,  1.305880E+00,
  2.944810E+02,  4.206000E+04,  1.301235E+00,
  2.946580E+02,  4.178700E+04,  1.290534E+00,
  2.948360E+02,  4.189900E+04,  1.301377E+00,
  2.950140E+02,  4.148000E+04,  1.283028E+00,
  2.951920E+02,  4.145200E+04,  1.285515E+00,
  2.953700E+02,  4.091100E+04,  1.259656E+00,
  2.955480E+02,  4.066800E+04,  1.249391E+00,
  2.957260E+02,  4.053800E+04,  1.246382E+00,
  2.959040E+02,  4.023300E+04,  1.233559E+00,
  2.960820E+02,  3.982200E+04,  1.214100E+00,
  2.962600E+02,  4.028200E+04,  1.244760E+00,
  2.964380E+02,  4.031300E+04,  1.252834E+00,
  2.966160E+02,  3.977000E+04,  1.226392E+00,
  2.967930E+02,  3.995200E+04,  1.240608E+00,
  2.969710E+02,  3.968500E+04,  1.230664E+00,
  2.971490E+02,  3.985100E+04,  1.244653E+00,
  2.973270E+02,  3.971900E+04,  1.242486E+00,
  2.975050E+02,  3.975000E+04,  1.249022E+00,
  2.976830E+02,  3.966700E+04,  1.249289E+00,
  2.978610E+02,  3.962000E+04,  1.251355E+00,
  2.980390E+02,  3.981800E+04,  1.267962E+00,
  2.982170E+02,  3.909600E+04,  1.230909E+00,
  2.983950E+02,  3.920500E+04,  1.240518E+00,
  2.985730E+02,  3.902600E+04,  1.235234E+00,
  2.987510E+02,  3.911300E+04,  1.244958E+00,
  2.989280E+02,  3.949600E+04,  1.272873E+00,
  2.991060E+02,  3.897800E+04,  1.248264E+00,
  2.992840E+02,  3.941700E+04,  1.277948E+00,
  2.994620E+02,  3.919100E+04,  1.270801E+00,
  2.996400E+02,  3.881900E+04,  1.252994E+00,
  2.998180E+02,  3.917800E+04,  1.278508E+00,
  2.999960E+02,  3.956700E+04,  1.307923E+00,
  3.001740E+02,  3.877000E+04,  1.266078E+00,
  3.003520E+02,  3.925700E+04,  1.298355E+00,
  3.005300E+02,  3.890300E+04,  1.283350E+00,
  3.007080E+02,  3.879100E+04,  1.280689E+00,
  3.008860E+02,  3.863700E+04,  1.276095E+00,
  3.010630E+02,  3.854500E+04,  1.275113E+00,
  3.012410E+02,  3.841000E+04,  1.271668E+00,
  3.014190E+02,  3.849400E+04,  1.281400E+00,
  3.015970E+02,  3.814900E+04,  1.265652E+00,
  3.017750E+02,  3.804800E+04,  1.263501E+00,
  3.019530E+02,  3.829600E+04,  1.283418E+00,
  3.021310E+02,  3.820600E+04,  1.283592E+00,
  3.023090E+02,  3.825900E+04,  1.291604E+00,
  3.024870E+02,  3.750900E+04,  1.250539E+00,
  3.026650E+02,  3.788300E+04,  1.276545E+00,
  3.028430E+02,  3.764200E+04,  1.267636E+00,
  3.030210E+02,  3.693600E+04,  1.228143E+00,
  3.031980E+02,  3.713600E+04,  1.243504E+00,
  3.033760E+02,  3.715800E+04,  1.250373E+00,
  3.035540E+02,  3.680500E+04,  1.233433E+00,
  3.037320E+02,  3.663200E+04,  1.226509E+00,
  3.039100E+02,  3.616800E+04,  1.201928E+00,
  3.040880E+02,  3.600800E+04,  1.195418E+00,
  3.042660E+02,  3.583900E+04,  1.189177E+00,
  3.044440E+02,  3.541900E+04,  1.167090E+00,
  3.046220E+02,  3.550900E+04,  1.176315E+00,
  3.048000E+02,  3.557400E+04,  1.185439E+00,
  3.049780E+02,  3.510400E+04,  1.160672E+00,
  3.051560E+02,  3.491000E+04,  1.151823E+00,
  3.053330E+02,  3.466500E+04,  1.140508E+00,
  3.055110E+02,  3.418300E+04,  1.113918E+00,
  3.056890E+02,  3.455300E+04,  1.140549E+00,
  3.058670E+02,  3.431200E+04,  1.131021E+00,
  3.060450E+02,  3.378900E+04,  1.101614E+00,
  3.062230E+02,  3.347700E+04,  1.084749E+00,
  3.064010E+02,  3.328000E+04,  1.075810E+00,
  3.065790E+02,  3.324700E+04,  1.077648E+00,
  3.067570E+02,  3.309600E+04,  1.072378E+00,
  3.069350E+02,  3.240300E+04,  1.031799E+00,
  3.071130E+02,  3.257200E+04,  1.045220E+00,
  3.072910E+02,  3.215800E+04,  1.023371E+00,
  3.074690E+02,  3.216000E+04,  1.026807E+00,
  3.076460E+02,  3.164700E+04,  9.980495E-01,
  3.078240E+02,  3.171700E+04,  1.005356E+00,
  3.080020E+02,  3.159000E+04,  1.001712E+00,
  3.081800E+02,  3.149200E+04,  9.993292E-01,
  3.083580E+02,  3.100900E+04,  9.718968E-01,
  3.085360E+02,  3.070100E+04,  9.546493E-01,
  3.087140E+02,  3.058100E+04,  9.501559E-01,
  3.088920E+02,  3.042500E+04,  9.438177E-01,
  3.090700E+02,  3.033500E+04,  9.416925E-01,
  3.092480E+02,  3.011800E+04,  9.313691E-01,
  3.094260E+02,  3.018900E+04,  9.396867E-01,
  3.096040E+02,  2.996700E+04,  9.294350E-01,
  3.097810E+02,  3.017700E+04,  9.468830E-01,
  3.099590E+02,  2.980100E+04,  9.269032E-01,
  3.101370E+02,  2.949700E+04,  9.097539E-01,
  3.103150E+02,  2.945200E+04,  9.099906E-01,
  3.104930E+02,  2.906100E+04,  8.879833E-01,
  3.106710E+02,  2.906400E+04,  8.911244E-01,
  3.108490E+02,  2.921200E+04,  9.051934E-01,
  3.110270E+02,  2.911900E+04,  9.035436E-01,
  3.112050E+02,  2.864300E+04,  8.754035E-01,
  3.113830E+02,  2.839900E+04,  8.616470E-01,
  3.115610E+02,  2.823200E+04,  8.537306E-01,
  3.117390E+02,  2.816200E+04,  8.525703E-01,
  3.119160E+02,  2.830700E+04,  8.661866E-01,
  3.120940E+02,  2.810500E+04,  8.570684E-01,
  3.122720E+02,  2.822600E+04,  8.686486E-01,
  3.124500E+02,  2.799300E+04,  8.572725E-01,
  3.126280E+02,  2.762600E+04,  8.356210E-01,
  3.128060E+02,  2.780200E+04,  8.504678E-01,
  3.129840E+02,  2.749300E+04,  8.339440E-01,
  3.131620E+02,  2.746900E+04,  8.353360E-01,
  3.133400E+02,  2.754700E+04,  8.445930E-01,
  3.135180E+02,  2.752900E+04,  8.475844E-01,
  3.136960E+02,  2.704200E+04,  8.179665E-01,
  3.138740E+02,  2.688600E+04,  8.096916E-01,
  3.140510E+02,  2.675900E+04,  8.044129E-01,
  3.142290E+02,  2.671000E+04,  8.045365E-01,
  3.144070E+02,  2.681900E+04,  8.158144E-01,
  3.145850E+02,  2.656500E+04,  8.024940E-01,
  3.147630E+02,  2.651500E+04,  8.020982E-01,
  3.149410E+02,  2.641700E+04,  7.990229E-01,
  3.151190E+02,  2.607300E+04,  7.786225E-01,
  3.152970E+02,  2.626100E+04,  7.945489E-01,
  3.154750E+02,  2.598800E+04,  7.798672E-01,
  3.156530E+02,  2.572300E+04,  7.642570E-01,
  3.158310E+02,  2.593500E+04,  7.821702E-01,
  3.160090E+02,  2.600600E+04,  7.916759E-01,
  3.161860E+02,  2.570200E+04,  7.743773E-01,
  3.163640E+02,  2.610800E+04,  8.057845E-01,
  3.165420E+02,  2.562400E+04,  7.768461E-01,
  3.167200E+02,  2.543300E+04,  7.655412E-01,
  3.168980E+02,  2.532900E+04,  7.613311E-01,
  3.170760E+02,  2.540200E+04,  7.699657E-01,
  3.172540E+02,  2.542800E+04,  7.758662E-01,
  3.174320E+02,  2.513000E+04,  7.585070E-01,
  3.176100E+02,  2.530200E+04,  7.736242E-01,
  3.177880E+02,  2.484800E+04,  7.454327E-01,
  3.179660E+02,  2.522600E+04,  7.748889E-01,
  3.181440E+02,  2.530500E+04,  7.855453E-01,
  3.183210E+02,  2.484600E+04,  7.566589E-01,
  3.184990E+02,  2.469100E+04,  7.477006E-01,
  3.186770E+02,  2.477500E+04,  7.569606E-01,
  3.188550E+02,  2.476400E+04,  7.601908E-01,
  3.190330E+02,  2.453000E+04,  7.469707E-01,
  3.192110E+02,  2.480900E+04,  7.701353E-01,
  3.193890E+02,  2.459900E+04,  7.595711E-01,
  3.195670E+02,  2.442000E+04,  7.495971E-01,
  3.197450E+02,  2.440600E+04,  7.517289E-01,
  3.199230E+02,  2.458800E+04,  7.686982E-01,
  3.201010E+02,  2.430300E+04,  7.521318E-01,
  3.202790E+02,  2.430200E+04,  7.548657E-01,
  3.204560E+02,  2.419400E+04,  7.506577E-01,
  3.206340E+02,  2.395600E+04,  7.365409E-01,
  3.208120E+02,  2.389300E+04,  7.347642E-01,
  3.209900E+02,  2.394300E+04,  7.418898E-01,
  3.211680E+02,  2.411300E+04,  7.582832E-01,
  3.213460E+02,  2.381900E+04,  7.408131E-01,
  3.215240E+02,  2.406600E+04,  7.618079E-01,
  3.217020E+02,  2.358000E+04,  7.302471E-01,
  3.218800E+02,  2.388600E+04,  7.550640E-01,
  3.220580E+02,  2.371900E+04,  7.473040E-01,
  3.222360E+02,  2.337200E+04,  7.244657E-01,
  3.224140E+02,  2.340700E+04,  7.295851E-01,
  3.225910E+02,  2.380900E+04,  7.633376E-01,
  3.227690E+02,  2.379700E+04,  7.675874E-01,
  3.229470E+02,  2.342300E+04,  7.432079E-01,
  3.231250E+02,  2.327900E+04,  7.347001E-01,
  3.233030E+02,  2.355800E+04,  7.588258E-01,
  3.234810E+02,  2.310800E+04,  7.294923E-01,
  3.236590E+02,  2.334800E+04,  7.497100E-01,
  3.238370E+02,  2.339800E+04,  7.579721E-01,
  3.240150E+02,  2.296100E+04,  7.286149E-01,
  3.241930E+02,  2.308400E+04,  7.401185E-01,
  3.243710E+02,  2.291600E+04,  7.313176E-01,
  3.245490E+02,  2.308600E+04,  7.473600E-01,
  3.247270E+02,  2.289700E+04,  7.370602E-01,
  3.249040E+02,  2.258400E+04,  7.161378E-01,
  3.250820E+02,  2.259300E+04,  7.192505E-01,
  3.252600E+02,  2.274800E+04,  7.347571E-01,
  3.254380E+02,  2.238000E+04,  7.106189E-01,
  3.256160E+02,  2.259100E+04,  7.290963E-01,
  3.257940E+02,  2.267400E+04,  7.398214E-01,
  3.259720E+02,  2.263600E+04,  7.407711E-01,
  3.261500E+02,  2.274000E+04,  7.522995E-01,
  3.263280E+02,  2.252800E+04,  7.398150E-01,
  3.265060E+02,  2.218800E+04,  7.161993E-01,
  3.266840E+02,  2.275100E+04,  7.625076E-01,
  3.268620E+02,  2.216700E+04,  7.223550E-01,
  3.270390E+02,  2.183600E+04,  6.981550E-01,
  3.272170E+02,  2.215700E+04,  7.254751E-01,
  3.273950E+02,  2.195800E+04,  7.146613E-01,
  3.275730E+02,  2.181300E+04,  7.060881E-01,
  3.277510E+02,  2.187500E+04,  7.139221E-01,
  3.279290E+02,  2.192600E+04,  7.216719E-01,
  3.281070E+02,  2.199700E+04,  7.309841E-01,
  3.282850E+02,  2.194500E+04,  7.306705E-01,
  3.284630E+02,  2.177800E+04,  7.207997E-01,
  3.286410E+02,  2.160700E+04,  7.101685E-01,
  3.288190E+02,  2.165300E+04,  7.167189E-01,
  3.289970E+02,  2.141000E+04,  7.009977E-01,
  3.291740E+02,  2.158800E+04,  7.177646E-01,
  3.293520E+02,  2.153600E+04,  7.178088E-01,
  3.295300E+02,  2.130700E+04,  7.028442E-01,
  3.297080E+02,  2.120900E+04,  6.976320E-01,
  3.298860E+02,  2.110200E+04,  6.921415E-01,
  3.300640E+02,  2.106300E+04,  6.920475E-01,
  3.302420E+02,  2.119200E+04,  7.057230E-01,
  3.304200E+02,  2.099300E+04,  6.936076E-01,
  3.305980E+02,  2.083900E+04,  6.838920E-01,
  3.307760E+02,  2.128200E+04,  7.226668E-01,
  3.309540E+02,  2.091400E+04,  6.978359E-01,
  3.311320E+02,  2.087200E+04,  6.965542E-01,
  3.313090E+02,  2.101300E+04,  7.112396E-01,
  3.314870E+02,  2.081500E+04,  6.991675E-01,
  3.316650E+02,  2.078100E+04,  6.990721E-01,
  3.318430E+02,  2.038700E+04,  6.702664E-01,
  3.320210E+02,  2.035200E+04,  6.692733E-01,
  3.321990E+02,  2.033800E+04,  6.713550E-01,
  3.323770E+02,  2.034000E+04,  6.748334E-01,
  3.325550E+02,  2.051200E+04,  6.923626E-01,
  3.327330E+02,  2.023000E+04,  6.731566E-01,
  3.329110E+02,  2.028700E+04,  6.802176E-01,
  3.330890E+02,  2.013500E+04,  6.712350E-01,
  3.332670E+02,  2.014800E+04,  6.751131E-01,
  3.334440E+02,  2.024500E+04,  6.865091E-01,
  3.336220E+02,  2.035200E+04,  6.991352E-01,
  3.338000E+02,  1.994900E+04,  6.695137E-01,
  3.339780E+02,  2.013800E+04,  6.870003E-01,
  3.341560E+02,  1.978500E+04,  6.617152E-01,
  3.343340E+02,  1.941000E+04,  6.323484E-01,
  3.345120E+02,  2.009000E+04,  6.910822E-01,
  3.346900E+02,  1.983300E+04,  6.754736E-01,
  3.348680E+02,  1.960200E+04,  6.584353E-01,
  3.350460E+02,  1.957600E+04,  6.587105E-01,
  3.352240E+02,  1.923000E+04,  6.327428E-01,